subject,condition,sample,Fz,FCz,Cz,FC3,FC4,C3,C4,CP3,CP4,time_ms
63.0,1.0,1.0,3.547144329896907,3.4721051546391752,3.605516494845361,1.8416927835051549,3.0944340206185568,1.6284051546391751,2.3591134020618556,0.13074123711340213,2.993675257731959,-1500.0
63.0,1.0,2.0,3.6940453608247426,3.650079381443299,3.7221494845360823,2.0534164948453606,3.176483505154639,1.7636113402061857,2.551073195876289,0.14803608247422687,2.8979556701030926,-1499.0234
63.0,1.0,3.0,3.6666474226804127,3.8740835051546396,3.890642268041237,2.1789989690721647,3.201378350515464,1.8367051546391753,2.7797731958762886,0.2610855670103093,2.9468762886597935,-1498.0469
63.0,1.0,4.0,3.67258762886598,4.011957731958763,3.960658762886598,2.2996298969072164,3.096447422680413,1.8765938144329897,2.6503649484536083,0.261556701030928,3.003755670103093,-1497.0703
63.0,1.0,5.0,4.2213360824742265,4.247910309278351,4.168265979381443,2.6034257731958763,3.4239391752577317,2.2307340206185566,2.7655319587628866,0.3866422680412372,3.042778350515464,-1496.0938
63.0,1.0,6.0,4.785113402061856,4.443339175257732,4.310814432989691,2.874679381443299,3.6528742268041237,2.4045896907216497,2.8416329896907215,0.49974639175257723,2.934305154639175,-1495.1172
63.0,1.0,7.0,5.0385144329896905,4.596857731958763,4.4032927835051545,3.060235051546392,3.7181969072164947,2.5428041237113406,2.946874226804124,0.6305865979381443,2.962475257731959,-1494.1406
63.0,1.0,8.0,4.9539195876288655,4.593173195876289,4.297876288659793,3.0450175257731957,3.515346391752577,2.5216505154639175,2.8267556701030925,0.5056525773195873,2.8489041237113404,-1493.1641
63.0,1.0,9.0,4.831162886597938,4.540089690721649,4.096203092783505,2.8949701030927835,3.2940154639175256,2.405544329896907,2.683648453608247,0.3214020618556701,2.740568041237113,-1492.1875
63.0,1.0,10.0,4.816324742268041,4.615526804123712,4.0711546391752576,2.88450618556701,3.3328298969072163,2.3727474226804124,2.690844329896907,0.1840412371134019,2.617003092783505,-1491.2109
63.0,1.0,11.0,4.920292783505155,4.713888659793815,4.185531958762887,2.951614432989691,3.4507835051546394,2.4357701030927834,2.8703309278350515,0.1650020618556699,2.5949907216494847,-1490.2344
63.0,1.0,12.0,5.100440206185567,4.704461855670103,4.169311340206185,3.0371917525773195,3.547014432989691,2.4939329896907214,2.943344329896907,0.23348350515463892,2.5391319587628867,-1489.2578
63.0,1.0,13.0,4.855506185567011,4.655256701030927,3.9531309278350517,2.820244329896907,3.44960824742268,2.2068525773195873,2.735582474226804,-0.002387628865979448,2.357276288659794,-1488.2813
63.0,1.0,14.0,4.543583505154639,4.4961463917525775,3.783058762886598,2.4790597938144328,3.3228484536082474,1.8603711340206184,2.6167494845360824,-0.3902288659793814,2.2614690721649486,-1487.3047
63.0,1.0,15.0,4.3421,4.268977319587629,3.7010226804123714,2.4339556701030927,3.291879381443299,1.6627175257731959,2.67199793814433,-0.5702659793814433,2.293051546391753,-1486.3281
63.0,1.0,16.0,4.246072164948454,4.316594845360825,3.8150711340206183,2.6102195876288663,3.431940206185567,1.738018556701031,2.941128865979382,-0.4247505154639175,2.498521649484536,-1485.3516
63.0,1.0,17.0,3.9991814432989696,4.286752577319588,3.7080587628865977,2.564,3.2460494845360826,1.6442061855670103,2.809246391752577,-0.46276804123711346,2.3695701030927836,-1484.375
63.0,1.0,18.0,3.7756711340206186,4.196178350515464,3.533042268041237,2.505622680412371,3.0581773195876285,1.589112371134021,2.5529463917525774,-0.46566288659793836,2.2347484536082476,-1483.3984
63.0,1.0,19.0,3.871024742268041,4.321171134020618,3.6387659793814433,2.6563814432989687,3.1692432989690724,1.8162041237113402,2.6582886597938145,-0.25103402061855673,2.3857948453608246,-1482.4219
63.0,1.0,20.0,3.9189484536082477,4.308034020618557,3.791522680412371,2.725613402061856,3.1641134020618553,2.0027639175257734,2.818131958762886,-0.06215051546391746,2.5375680412371135,-1481.4453
63.0,1.0,21.0,3.9512144329896906,4.163403092783505,3.8065432989690717,2.7393659793814433,3.0635371134020617,1.949168041237113,2.827118556701031,-0.04506288659793815,2.735417525773196,-1480.4688
63.0,1.0,22.0,3.668977319587629,3.783450515463918,3.477678350515464,2.5957103092783504,2.7668608247422677,1.6620773195876288,2.5498164948453605,-0.21674432989690728,2.5576443298969074,-1479.4922
63.0,1.0,23.0,3.212574226804124,3.416678350515464,3.017123711340206,2.2083731958762884,2.382698969072165,1.285821649484536,2.182455670103093,-0.40163505154639173,2.1486041237113405,-1478.5156
63.0,1.0,24.0,3.033163917525773,3.3744340206185566,2.898522680412371,2.069181443298969,2.3615,1.2731000000000001,2.153342268041237,-0.37598762886597936,2.1076804123711343,-1477.5391
63.0,1.0,25.0,3.3069123711340205,3.560013402061856,3.057161855670103,2.2129319587628866,2.607642268041237,1.4403824742268043,2.237194845360825,-0.16334845360824737,2.3097670103092787,-1476.5625
63.0,1.0,26.0,3.5201226804123715,3.714955670103093,3.2194639175257733,2.3448123711340205,2.7268319587628866,1.6126865979381446,2.294403092783505,0.06115463917525776,2.5406164948453607,-1475.5859
63.0,1.0,27.0,3.626476288659794,3.817960824742268,3.28141030927835,2.4437381443298967,2.759623711340206,1.7598525773195877,2.200878350515464,0.16718969072164938,2.6641319587628867,-1474.6094
63.0,1.0,28.0,3.645015463917526,3.9094309278350514,3.3653907216494847,2.6204907216494844,2.887970103092784,1.8324649484536082,2.3775701030927836,0.16137628865979367,2.7674041237113403,-1473.6328
63.0,1.0,29.0,3.4123917525773195,3.6352391752577318,3.1123288659793813,2.4237453608247423,2.6467793814432996,1.6193525773195874,2.1994690721649484,-0.0745041237113401,2.5512134020618555,-1472.6563
63.0,1.0,30.0,3.0101917525773194,3.3228680412371134,2.8625690721649484,2.1565453608247425,2.2393453608247422,1.426022680412371,1.7236319587628866,-0.1980061855670102,2.378710309278351,-1471.6797
63.0,1.0,31.0,2.978320618556701,3.1535536082474227,2.7856412371134023,2.045221649484536,2.180063917525773,1.3432463917525774,1.6341525773195875,-0.30072680412371133,2.28049587628866,-1470.7031
63.0,1.0,32.0,3.1657752577319584,3.3266103092783506,2.91480618556701,2.1337278350515465,2.4373865979381444,1.5058525773195877,1.7835113402061855,-0.19624845360824736,2.3015701030927835,-1469.7266
63.0,1.0,33.0,2.9944103092783507,3.122512371134021,2.8005855670103097,1.9100226804123712,2.459619587628866,1.483585567010309,1.7291164948453608,-0.12162474226804115,2.3486298969072164,-1468.75
63.0,1.0,34.0,2.7948948453608247,2.7063711340206185,2.517942268041237,1.67840412371134,2.1752649484536084,1.2322268041237117,1.6262731958762884,-0.1784432989690721,2.3186711340206188,-1467.7734
63.0,1.0,35.0,2.894703092783505,2.653322680412371,2.4321134020618556,1.6431515463917528,2.081363917525773,1.1376690721649485,1.6040546391752577,-0.27311958762886585,2.2689185567010313,-1466.7969
63.0,1.0,36.0,3.001492783505155,2.6599226804123712,2.4269360824742265,1.645244329896907,2.0269103092783505,1.221359793814433,1.654939175257732,-0.24208659793814422,2.263776288659794,-1465.8203
63.0,1.0,37.0,2.990851546391753,2.7654309278350517,2.6193731958762885,1.7760505154639177,2.1460680412371134,1.4416515463917527,1.7803288659793817,0.08621649484536079,2.4499618556701033,-1464.8438
63.0,1.0,38.0,2.993855670103093,2.9088742268041234,2.8626979381443296,1.8675474226804123,2.431074226804124,1.6041721649484537,1.9247144329896906,0.4205092783505154,2.887955670103093,-1463.8672
63.0,1.0,39.0,3.0366577319587633,2.884867010309278,2.922032989690722,1.8857412371134021,2.446379381443299,1.676441237113402,2.073714432989691,0.5133123711340207,3.130177319587629,-1462.8906
63.0,1.0,40.0,3.1613938144329894,2.7996041237113403,2.902315463917526,1.9310061855670104,2.3394226804123712,1.7117608247422682,2.1233350515463916,0.5159907216494846,3.15060824742268,-1461.9141
63.0,1.0,41.0,3.2069855670103093,2.6914340206185567,2.82149175257732,1.8052278350515465,2.300881443298969,1.6164226804123711,2.139040206185567,0.5628721649484534,3.2902257731958766,-1460.9375
63.0,1.0,42.0,2.9136886597938143,2.530041237113402,2.665553608247423,1.5424649484536084,2.2699350515463914,1.5179463917525773,2.047385567010309,0.4599216494845362,3.1865237113402065,-1459.9609
63.0,1.0,43.0,2.653214432989691,2.2659268041237115,2.5502845360824744,1.417758762886598,2.178763917525773,1.4671103092783504,1.9235030927835053,0.39351752577319593,3.1369216494845356,-1458.9844
63.0,1.0,44.0,2.38649175257732,1.9460061855670103,2.2793742268041237,1.151336082474227,1.9571340206185568,1.2101762886597938,1.7442257731958761,0.22097938144329882,2.874221649484536,-1458.0078
63.0,1.0,45.0,2.3102134020618554,2.004842268041237,2.273920618556701,1.117105154639175,2.0973618556701035,1.2000701030927836,1.8797876288659796,0.26189381443298976,2.9141298969072165,-1457.0313
63.0,1.0,46.0,2.4712072164948458,2.308878350515464,2.438226804123711,1.3307587628865978,2.39480618556701,1.3882762886597935,2.1771969072164947,0.49512268041237106,3.127436082474227,-1456.0547
63.0,1.0,47.0,2.804949484536082,2.6316824742268037,2.7430134020618553,1.7183226804123712,2.674538144329897,1.6897752577319587,2.5074505154639177,0.9899103092783503,3.449596907216495,-1455.0781
63.0,1.0,48.0,2.9861082474226803,2.8557670103092785,3.0340824742268038,1.8303103092783504,2.825182474226804,1.9851103092783506,2.796984536082474,1.2839237113402062,3.7001886597938145,-1454.1016
63.0,1.0,49.0,3.119980412371134,2.877455670103093,3.0946948453608245,1.8710628865979382,2.793125773195876,2.1105092783505155,2.840109278350516,1.3503474226804124,3.868070103092783,-1453.125
63.0,1.0,50.0,3.2636350515463914,2.8545536082474228,3.1072309278350514,1.8224257731958762,2.777839175257732,2.0453701030927833,2.7333288659793813,1.3034649484536083,3.9079134020618556,-1452.1484
63.0,1.0,51.0,2.977732989690722,2.594443298969072,2.938118556701031,1.5158721649484537,2.499567010309278,1.7225927835051547,2.5868463917525775,1.114439175257732,3.8870793814432987,-1451.1719
63.0,1.0,52.0,2.9425206185567006,2.590140206185567,2.8773855670103092,1.493282474226804,2.4722618556701033,1.8508886597938146,2.699887628865979,1.275983505154639,4.073530927835051,-1450.1953
63.0,1.0,53.0,3.1188185567010307,2.673381443298969,2.8666072164948453,1.5017113402061855,2.582544329896907,2.0234484536082475,2.8188680412371134,1.3913298969072165,4.23728556701031,-1449.2188
63.0,1.0,54.0,3.0674896907216493,2.6069515463917527,2.77369587628866,1.4270979381443298,2.581160824742268,1.9878247422680415,2.8455845360824745,1.4585865979381447,4.325553608247423,-1448.2422
63.0,1.0,55.0,2.796742268041237,2.3880484536082474,2.5312896907216493,1.324098969072165,2.328701030927835,1.7921680412371135,2.70380206185567,1.3031,4.184141237113402,-1447.2656
63.0,1.0,56.0,2.53840206185567,2.0754659793814434,2.285657731958763,1.1642381443298968,1.9435474226804124,1.5070134020618555,2.5139123711340203,1.078640206185567,3.832080412371134,-1446.2891
63.0,1.0,57.0,2.5251123711340204,2.0261072164948457,2.2291474226804127,1.0156268041237113,1.7468835051546392,1.2326773195876288,2.41890618556701,0.8113639175257731,3.562275257731959,-1445.3125
63.0,1.0,58.0,2.610242268041237,1.9905453608247423,2.1006927835051545,0.8259319587628865,1.7061536082474227,1.0612536082474229,2.199683505154639,0.5622649484536083,3.4571422680412374,-1444.3359
63.0,1.0,59.0,2.631143298969072,1.8809742268041236,1.98669587628866,0.844161855670103,1.7388865979381443,1.0080474226804124,2.210265979381443,0.42732886597938147,3.5212,-1443.3594
63.0,1.0,60.0,2.9239556701030924,2.0698824742268043,2.205264948453608,1.2363865979381443,1.9303814432989692,1.3409257731958761,2.4901824742268044,0.7272721649484538,3.6867649484536082,-1442.3828
63.0,1.0,61.0,3.2553896907216497,2.3490639175257733,2.424147422680412,1.5569309278350516,2.057942268041237,1.5650690721649485,2.5190484536082476,0.9755597938144328,3.634655670103093,-1441.4063
63.0,1.0,62.0,3.171717525773196,2.354282474226804,2.406853608247423,1.6172525773195876,2.0112391752577317,1.6191298969072165,2.470546391752577,1.0325917525773198,3.6993587628865976,-1440.4297
63.0,1.0,63.0,2.594581443298969,2.1483319587628866,2.266916494845361,1.227961855670103,1.9400484536082474,1.5029402061855668,2.5151515463917526,0.9456762886597939,3.7278134020618556,-1439.4531
63.0,1.0,64.0,2.288887628865979,1.9718422680412373,2.0670639175257732,0.8270278350515465,1.9255670103092781,1.2303422680412373,2.465932989690722,0.8063082474226806,3.5456680412371133,-1438.4766
63.0,1.0,65.0,2.2169711340206186,1.825903092783505,1.9934824742268042,0.626757731958763,1.8418948453608248,1.1148670103092784,2.438138144329897,0.6571494845360825,3.3716762886597937,-1437.5
63.0,1.0,66.0,2.25679793814433,2.059774226804124,2.1972309278350513,0.76500206185567,1.9138824742268041,1.2016505154639174,2.5728350515463916,0.7105381443298969,3.3949350515463914,-1436.5234
63.0,1.0,67.0,2.4289216494845363,2.223247422680412,2.323980412371134,0.9233886597938143,2.025803092783505,1.348017525773196,2.6985525773195875,0.9508340206185566,3.566480412371134,-1435.5469
63.0,1.0,68.0,2.527817525773196,2.248381443298969,2.2950680412371134,0.9472216494845362,2.0249721649484536,1.3172597938144328,2.545981443298969,0.963381443298969,3.47469587628866,-1434.5703
63.0,1.0,69.0,2.428317525773196,2.0516453608247422,2.1313474226804123,0.8137969072164948,1.8580855670103091,1.1252876288659797,2.290815463917526,0.7327907216494844,3.290525773195876,-1433.5938
63.0,1.0,70.0,2.4702432989690726,2.059824742268041,2.1118288659793816,0.8640690721649487,1.8638546391752577,1.2123515463917527,2.320254639175258,0.6522989690721649,3.288470103092784,-1432.6172
63.0,1.0,71.0,2.643596907216495,2.0571989690721653,2.0203649484536084,0.841817525773196,1.9344917525773195,1.1805865979381442,2.4042927835051544,0.6788639175257732,3.327681443298969,-1431.6406
63.0,1.0,72.0,3.1092773195876293,2.2791886597938142,2.2456319587628863,0.9121525773195874,2.3877268041237114,1.2952556701030928,2.735354639175258,0.9298082474226805,3.5711247422680414,-1430.6641
63.0,1.0,73.0,3.7029865979381444,2.5797711340206186,2.585158762886598,1.1020958762886597,2.8235577319587626,1.5614329896907218,3.118145360824742,1.1506505154639175,3.9013525773195874,-1429.6875
63.0,1.0,74.0,3.508394845360825,2.557817525773196,2.5392587628865977,0.9175237113402062,2.6879845360824746,1.4859927835051547,3.0670298969072163,0.9357278350515463,3.9484494845360825,-1428.7109
63.0,1.0,75.0,3.160319587628866,2.3688865979381446,2.3774670103092785,0.7378649484536083,2.3516927835051544,1.2834938144329897,2.866824742268041,0.6400371134020619,3.8535,-1427.7344
63.0,1.0,76.0,2.956357731958763,2.1583061855670103,2.168798969072165,0.6777958762886598,2.221883505154639,1.047781443298969,2.7712402061855674,0.5053412371134023,3.5906278350515466,-1426.7578
63.0,1.0,77.0,2.693860824742268,2.037571134020619,2.0539556701030923,0.63849793814433,2.1971567010309276,0.9391773195876288,2.7204175257731955,0.5895226804123713,3.5410072164948456,-1425.7813
63.0,1.0,78.0,2.5982041237113402,2.074073195876289,2.132118556701031,0.4590649484536083,2.1409391752577323,0.9781309278350515,2.825438144329897,0.6149670103092783,3.5435907216494846,-1424.8047
63.0,1.0,79.0,2.342164948453608,1.826444329896907,1.950058762886598,0.1448556701030929,1.9206670103092787,0.8204628865979381,2.654696907216495,0.35560927835051565,3.2411639175257734,-1423.8281
63.0,1.0,80.0,2.3172680412371136,1.723503092783505,1.8105195876288662,0.07002783505154657,1.7075907216494846,0.8243711340206188,2.578789690721649,0.23829587628865964,3.1642587628865977,-1422.8516
63.0,1.0,81.0,2.625756701030928,1.8819505154639176,1.9677762886597938,0.21061546391752578,1.9472752577319585,1.0044010309278348,2.7307103092783502,0.38610618556701026,3.3039463917525773,-1421.875
63.0,1.0,82.0,2.829060824742268,1.9061443298969072,2.188816494845361,0.31334432989690725,2.2827742268041233,1.1303536082474228,2.882286597938144,0.5615082474226804,3.400718556701031,-1420.8984
63.0,1.0,83.0,2.762162886597938,1.9442082474226805,2.2950762886597933,0.2752824742268043,2.236309278350516,1.1400268041237114,2.9645979381443297,0.6402742268041236,3.339163917525773,-1419.9219
63.0,1.0,84.0,2.8747690721649484,2.0767123711340205,2.3628577319587625,0.3531762886597938,2.2214907216494844,1.2109896907216495,3.0733886597938143,0.726701030927835,3.330062886597938,-1418.9453
63.0,1.0,85.0,2.926362886597938,2.1958309278350514,2.400283505154639,0.4831144329896907,2.275474226804124,1.1724721649484537,3.1365175257731956,0.70760206185567,3.312319587628866,-1417.9688
63.0,1.0,86.0,2.675465979381443,2.1795237113402064,2.3189525773195876,0.47063298969072165,2.2324020618556704,1.1587144329896908,3.069892783505155,0.7641288659793813,3.3876453608247417,-1416.9922
63.0,1.0,87.0,2.7877628865979385,2.3584948453608248,2.5176298969072164,0.5861979381443299,2.2326268041237114,1.4308907216494846,3.0878010309278348,0.9710474226804126,3.498559793814433,-1416.0156
63.0,1.0,88.0,2.926505154639175,2.397461855670103,2.5676896907216493,0.7809608247422681,2.389837113402062,1.620323711340206,3.188911340206186,0.963616494845361,3.53980206185567,-1415.0391
63.0,1.0,89.0,2.9265247422680414,2.388658762886598,2.5289886597938147,0.8067164948453609,2.5034989690721647,1.5672742268041238,3.232923711340206,0.8659618556701031,3.4997814432989687,-1414.0625
63.0,1.0,90.0,3.116344329896907,2.5937226804123714,2.6893536082474228,0.8817731958762884,2.588336082474227,1.6635484536082474,3.4006917525773197,0.9079164948453607,3.5559247422680413,-1413.0859
63.0,1.0,91.0,3.2623948453608245,2.7991247422680416,2.839041237113402,1.0777752577319586,2.6389515463917523,1.7570845360824745,3.4257742268041236,0.975235051546392,3.4490783505154643,-1412.1094
63.0,1.0,92.0,3.2566350515463918,2.8919288659793816,2.9403865979381445,1.1524443298969071,2.722076288659794,1.7430886597938144,3.38489793814433,0.9642505154639176,3.3435670103092785,-1411.1328
63.0,1.0,93.0,3.33468969072165,2.952464948453608,2.9857855670103093,1.2193360824742268,2.8804164948453606,1.753721649484536,3.446376288659794,0.932439175257732,3.4017247422680414,-1410.1563
63.0,1.0,94.0,3.2706010309278355,2.88069381443299,2.8076845360824745,1.128060824742268,2.829412371134021,1.6902948453608246,3.2312546391752575,0.7523,3.1823814432989694,-1409.1797
63.0,1.0,95.0,3.231394845360825,2.791375257731959,2.6927319587628866,1.028162886597938,2.6940711340206187,1.5884701030927837,2.9190185567010305,0.5223917525773197,2.780850515463917,-1408.2031
63.0,1.0,96.0,3.427001030927835,2.8231896907216494,2.706161855670103,1.1339845360824743,2.6846546391752577,1.6193814432989693,2.8109628865979386,0.5321474226804124,2.594705154639175,-1407.2266
63.0,1.0,97.0,3.8725226804123714,3.0798742268041237,2.9691938144329897,1.5364237113402062,2.919823711340206,1.9343329896907218,3.030085567010309,0.6856175257731959,2.756177319587629,-1406.25
63.0,1.0,98.0,4.0104762886597936,3.1903268041237114,3.0744164948453605,1.6916618556701033,2.9228360824742268,1.9667649484536085,3.0911474226804123,0.6234701030927835,2.6702711340206187,-1405.2734
63.0,1.0,99.0,3.9577113402061856,3.133803092783505,2.9749319587628866,1.57530824742268,2.8632659793814437,1.762522680412371,2.9716628865979384,0.517561855670103,2.3700134020618555,-1404.2969
63.0,1.0,100.0,3.9927247422680416,3.17149793814433,2.964780412371134,1.5926865979381444,2.8365030927835053,1.6720206185567008,2.900101030927835,0.35873195876288677,2.31440412371134,-1403.3203
63.0,1.0,101.0,4.015078350515464,3.315621649484536,3.0561123711340206,1.4969494845360827,2.7858175257731954,1.7114463917525773,2.858867010309279,0.26005773195876297,2.448714432989691,-1402.3438
63.0,1.0,102.0,4.272598969072165,3.5265041237113404,3.211557731958763,1.5648762886597938,2.9141948453608246,1.8449113402061852,2.967698969072165,0.3582721649484536,2.686264948453608,-1401.3672
63.0,1.0,103.0,4.158051546391752,3.482170103092783,3.2392360824742266,1.6894309278350517,2.900481443298969,1.9559154639175256,2.883721649484536,0.40674123711340204,2.673436082474227,-1400.3906
63.0,1.0,104.0,4.216912371134021,3.5696896907216495,3.2975329896907217,1.8500938144329897,2.9243195876288657,2.1497639175257732,2.8691546391752576,0.5051309278350514,2.6770206185567016,-1399.4141
63.0,1.0,105.0,4.307936082474227,3.779411340206186,3.454507216494845,2.0764742268041236,2.983782474226804,2.326785567010309,2.937983505154639,0.5347907216494845,2.737474226804124,-1398.4375
63.0,1.0,106.0,4.440807216494845,3.8145123711340205,3.4559793814432993,2.2413721649484537,2.976360824742268,2.4334639175257733,2.7608958762886595,0.5488917525773194,2.652144329896907,-1397.4609
63.0,1.0,107.0,4.56580618556701,3.7310896907216495,3.386023711340206,2.247740206185567,2.947575257731959,2.3791391752577318,2.6508639175257733,0.4913659793814431,2.5176639175257733,-1396.4844
63.0,1.0,108.0,4.356538144329896,3.3614659793814434,3.1434505154639174,1.9411298969072168,2.611539175257732,2.0584453608247424,2.3734494845360827,0.26428144329896913,2.345956701030928,-1395.5078
63.0,1.0,109.0,4.133364948453608,3.2361969072164953,2.9993649484536085,1.6793061855670106,2.4001515463917524,1.8542958762886599,2.2525927835051545,0.15741443298969054,2.255042268041237,-1394.5313
63.0,1.0,110.0,4.140403092783505,3.233422680412371,2.9874360824742268,1.718522680412371,2.3280134020618557,1.8740144329896906,2.1380216494845357,0.1804680412371135,2.1697134020618556,-1393.5547
63.0,1.0,111.0,4.300767010309279,3.309277319587629,2.983820618556701,1.7246185567010308,2.3871948453608245,1.9458134020618556,2.1073309278350516,0.24217628865979385,2.0199525773195877,-1392.5781
63.0,1.0,112.0,4.646501030927835,3.569675257731959,3.1658051546391754,2.020713402061856,2.5610907216494843,2.099028865979381,2.24949587628866,0.27886185567010324,1.9511587628865978,-1391.6016
63.0,1.0,113.0,4.641785567010309,3.7584680412371134,3.331810309278351,2.0931051546391752,2.679875257731959,2.070219587628866,2.3694309278350514,0.2984907216494843,1.9863515463917525,-1390.625
63.0,1.0,114.0,4.1665721649484535,3.747329896907216,3.239176288659794,1.8379309278350515,2.602022680412371,1.9428463917525773,2.1679969072164953,0.27352061855670107,1.8237742268041237,-1389.6484
63.0,1.0,115.0,4.021936082474227,3.756065979381443,3.3264402061855667,1.7194443298969073,2.589818556701031,1.9191453608247422,2.1742,0.3894536082474227,1.8871649484536084,-1388.6719
63.0,1.0,116.0,3.911035051546392,3.8208680412371137,3.47080618556701,1.799958762886598,2.60990206185567,2.014259793814433,2.4177175257731958,0.423740206185567,1.9661360824742267,-1387.6953
63.0,1.0,117.0,3.962656701030928,4.106474226804124,3.650577319587629,1.9659835051546388,2.800521649484536,2.197436082474227,2.660268041237113,0.623736082474227,2.114363917525773,-1386.7188
63.0,1.0,118.0,4.095430927835052,4.100244329896907,3.5564701030927837,1.9260907216494847,2.9211195876288665,2.063320618556701,2.6392845360824744,0.5989020618556701,2.0534237113402063,-1385.7422
63.0,1.0,119.0,4.1192072164948454,3.9598268041237117,3.42810412371134,1.8484907216494844,2.881329896907216,1.9172041237113404,2.436640206185567,0.35293092783505153,1.9204969072164948,-1384.7656
63.0,1.0,120.0,4.1578,3.9800298969072165,3.413044329896907,1.8441587628865979,2.9075010309278353,2.0158350515463916,2.5522556701030927,0.43582577319587645,1.9188865979381444,-1383.7891
63.0,1.0,121.0,4.240568041237114,3.933762886597938,3.395483505154639,1.8703948453608248,2.8922278350515467,2.084320618556701,2.516068041237113,0.5650876288659791,2.0206948453608247,-1382.8125
63.0,1.0,122.0,4.4061546391752575,3.977954639175258,3.4817587628865985,1.9350340206185566,2.869760824742268,2.1916835051546393,2.426746391752577,0.6672597938144331,2.1101412371134027,-1381.8359
63.0,1.0,123.0,4.506274226804124,4.040550515463917,3.5320216494845362,1.9495443298969073,3.0132762886597937,2.321250515463918,2.540056701030928,0.7122237113402062,2.2213432989690722,-1380.8594
63.0,1.0,124.0,4.401734020618557,3.981339175257732,3.413756701030928,1.9240567010309277,3.024338144329897,2.3533484536082474,2.4156938144329896,0.7592969072164948,2.1980556701030927,-1379.8828
63.0,1.0,125.0,4.122537113402061,3.6697690721649483,3.084707216494845,1.5460659793814433,2.692635051546392,1.9253154639175258,1.8851814432989689,0.46899072164948463,1.7099319587628865,-1378.9063
63.0,1.0,126.0,4.006006185567011,3.48209587628866,2.905140206185567,1.3229917525773198,2.363080412371134,1.6659762886597937,1.632757731958763,0.2730927835051546,1.5118422680412373,-1377.9297
63.0,1.0,127.0,3.830425773195876,3.2936432989690725,2.7778072164948453,1.1112680412371134,2.092158762886598,1.5509030927835052,1.5477247422680414,0.22590721649484521,1.4385742268041237,-1376.9531
63.0,1.0,128.0,3.659227835051546,3.082934020618557,2.651926804123711,1.028760824742268,2.100361855670103,1.5205773195876289,1.4905989690721648,0.2247144329896907,1.262976288659794,-1375.9766
63.0,1.0,129.0,3.4450092783505157,2.9907690721649485,2.533749484536082,0.986519587628866,2.069952577319588,1.5565876288659795,1.4329690721649484,0.2391855670103095,1.259101030927835,-1375.0
63.0,1.0,130.0,3.41070206185567,2.9323845360824743,2.574345360824742,1.004583505154639,2.0438412371134023,1.6106298969072164,1.5300783505154638,0.40202783505154627,1.3870907216494845,-1374.0234
63.0,1.0,131.0,3.366356701030928,2.8837103092783503,2.627336082474227,1.0943041237113402,2.0334896907216495,1.6989762886597939,1.588396907216495,0.5039164948453606,1.4620525773195878,-1373.0469
63.0,1.0,132.0,3.0671113402061856,2.724236082474227,2.5130041237113403,0.9025659793814432,1.9601474226804125,1.64039793814433,1.5022814432989688,0.3599329896907216,1.3269587628865978,-1372.0703
63.0,1.0,133.0,2.8619123711340206,2.4636340206185565,2.2543319587628865,0.6813474226804122,1.7485515463917525,1.432481443298969,1.2837072164948453,0.1670175257731957,1.021781443298969,-1371.0938
63.0,1.0,134.0,2.989427835051546,2.5104639175257732,2.2046845360824747,0.682321649484536,1.7899618556701034,1.3743958762886597,1.2774742268041237,0.12694329896907192,0.8469309278350514,-1370.1172
63.0,1.0,135.0,3.078345360824742,2.6366010309278347,2.2627216494845364,0.8250927835051547,1.9031041237113402,1.4480226804123713,1.2274546391752579,0.1844206185567008,0.9021979381443299,-1369.1406
63.0,1.0,136.0,3.0679298969072164,2.6042938144329897,2.2268948453608246,0.8235773195876287,1.8899752577319586,1.471754639175258,1.1240340206185566,0.24281855670103092,0.9302340206185563,-1368.1641
63.0,1.0,137.0,3.032419587628866,2.292763917525773,1.9561175257731958,0.6225659793814432,1.5958288659793816,1.2919123711340206,0.9549515463917526,0.1054072164948453,0.8025855670103093,-1367.1875
63.0,1.0,138.0,3.0748,2.1787340206185566,1.8915711340206185,0.7253082474226804,1.4300958762886595,1.2589855670103094,0.9500546391752579,0.16729278350515459,0.8173855670103094,-1366.2109
63.0,1.0,139.0,3.1608927835051546,2.208555670103093,1.9872041237113403,0.9610432989690721,1.4087752577319583,1.5338999999999998,1.0914927835051547,0.3899443298969073,0.9167041237113401,-1365.2344
63.0,1.0,140.0,3.036412371134021,2.2634659793814436,2.0075000000000003,1.0868711340206185,1.5562731958762888,1.6670144329896908,1.2124402061855668,0.517296907216495,1.102882474226804,-1364.2578
63.0,1.0,141.0,2.8707082474226806,2.3264577319587625,2.0863907216494844,1.053840206185567,1.587443298969072,1.6388546391752576,1.3361546391752577,0.649880412371134,1.199140206185567,-1363.2813
63.0,1.0,142.0,2.6339742268041233,2.0969907216494845,1.988940206185567,0.8170072164948454,1.3186268041237115,1.4161453608247425,1.1059082474226805,0.49144742268041247,1.0266474226804123,-1362.3047
63.0,1.0,143.0,2.5544278350515466,1.8820659793814434,1.8737113402061856,0.6592134020618556,1.2500525773195876,1.3709195876288662,1.0207546391752578,0.46970721649484537,1.026077319587629,-1361.3281
63.0,1.0,144.0,2.583481443298969,1.79140206185567,1.7257278350515461,0.5551278350515465,1.2919711340206186,1.3015350515463917,0.9173185567010308,0.5344783505154638,0.9717865979381444,-1360.3516
63.0,1.0,145.0,2.5929175257731956,1.8234391752577321,1.6351701030927837,0.5636969072164947,1.2710278350515465,1.2522350515463918,0.772416494845361,0.4930123711340206,0.9236639175257734,-1359.375
63.0,1.0,146.0,2.694913402061856,1.7890340206185569,1.5901927835051548,0.6160999999999999,1.3177268041237116,1.1793639175257733,0.7337195876288665,0.41325876288659813,0.9226711340206187,-1358.3984
63.0,1.0,147.0,2.837070103092783,1.8014536082474228,1.5752773195876288,0.5535237113402062,1.3479123711340204,1.089618556701031,0.7371670103092786,0.4099350515463917,0.920196907216495,-1357.4219
63.0,1.0,148.0,2.7885319587628863,1.708367010309278,1.4727309278350518,0.5266701030927835,1.2490257731958763,1.0812484536082474,0.6767257731958762,0.3206360824742269,0.7240247422680411,-1356.4453
63.0,1.0,149.0,2.813012371134021,1.7951216494845361,1.5563958762886596,0.7463659793814432,1.1708371134020619,1.2212670103092782,0.7600639175257733,0.5058917525773196,0.623260824742268,-1355.4688
63.0,1.0,150.0,2.6535618556701035,1.7975855670103094,1.649998969072165,0.8019855670103092,1.0913391752577322,1.3278969072164948,0.8126876288659793,0.7628402061855669,0.7080175257731959,-1354.4922
63.0,1.0,151.0,2.5688556701030927,1.670160824742268,1.5994474226804123,0.797836082474227,1.0367309278350514,1.4857463917525773,0.9098288659793814,1.0106876288659794,0.9431257731958761,-1353.5156
63.0,1.0,152.0,2.685437113402062,1.8056680412371133,1.6982917525773191,0.8812690721649482,1.1708340206185568,1.6748855670103093,1.0907515463917525,1.1969041237113403,1.170679381443299,-1352.5391
63.0,1.0,153.0,2.686383505154639,1.7286278350515465,1.6813804123711342,0.7848865979381443,1.1078288659793813,1.596438144329897,1.0864948453608247,1.1177979381443301,1.0936371134020617,-1351.5625
63.0,1.0,154.0,2.729622680412371,1.6171536082474227,1.623096907216495,0.6959268041237112,0.9369505154639175,1.514422680412371,0.853143298969072,1.0904443298969073,1.09169793814433,-1350.5859
63.0,1.0,155.0,2.8454742268041238,1.5181123711340205,1.627818556701031,0.8091257731958762,0.978505154639175,1.594079381443299,0.9075989690721648,1.2647917525773196,1.2729185567010313,-1349.6094
63.0,1.0,156.0,2.727396907216495,1.4658319587628865,1.6303092783505153,0.8302443298969073,1.0073247422680411,1.7168463917525774,1.0946453608247422,1.5155360824742268,1.3359484536082473,-1348.6328
63.0,1.0,157.0,2.5859525773195875,1.5095556701030928,1.6657340206185567,0.9058247422680412,1.0027690721649483,1.7929268041237114,1.2336443298969073,1.5979505154639178,1.2205484536082474,-1347.6563
63.0,1.0,158.0,2.4655670103092784,1.5037536082474225,1.731439175257732,0.9084659793814431,0.9466463917525776,1.9454989690721651,1.3087958762886596,1.7677845360824742,1.3491113402061858,-1346.6797
63.0,1.0,159.0,2.2777412371134016,1.5036072164948453,1.6944340206185566,0.8680237113402062,0.847241237113402,1.9708484536082476,1.2925731958762887,1.7649670103092783,1.3907206185567011,-1345.7031
63.0,1.0,160.0,2.3714618556701033,1.7204515463917527,1.9252298969072168,0.9820422680412373,1.1736257731958761,2.0229123711340207,1.5936072164948458,1.836439175257732,1.528481443298969,-1344.7266
63.0,1.0,161.0,2.2863680412371132,1.7181319587628867,2.0525917525773196,0.8881113402061854,1.2139938144329896,1.9453463917525773,1.625239175257732,1.748098969072165,1.6345804123711338,-1343.75
63.0,1.0,162.0,2.1943917525773196,1.5177051546391753,1.9698453608247424,0.5697690721649484,1.0160340206185567,1.8116134020618555,1.488381443298969,1.6270701030927834,1.624944329896907,-1342.7734
63.0,1.0,163.0,2.003041237113402,1.3520835051546392,1.754879381443299,0.19085360824742273,0.7939865979381443,1.5011845360824743,1.1549515463917528,1.4323391752577321,1.5152474226804125,-1341.7969
63.0,1.0,164.0,1.867803092783505,1.1158474226804123,1.5182958762886598,-0.03791855670103085,0.5300505154639175,1.1702546391752577,0.8928453608247422,1.1707298969072166,1.371117525773196,-1340.8203
63.0,1.0,165.0,1.8908773195876292,1.0274072164948453,1.4604268041237114,-0.0004865979381442282,0.44055567010309277,1.1992051546391753,0.8874175257731959,1.1757350515463918,1.367182474226804,-1339.8438
63.0,1.0,166.0,1.9347958762886597,1.1709845360824744,1.764921649484536,0.21702268041237105,0.627280412371134,1.511262886597938,1.2171938144329897,1.4608927835051544,1.6709721649484535,-1338.8672
63.0,1.0,167.0,2.301268041237113,1.522336082474227,2.2013639175257733,0.6750814432989691,1.0483319587628865,1.8427432989690722,1.7856061855670102,1.7976061855670102,2.2057309278350514,-1337.8906
63.0,1.0,168.0,2.43539381443299,1.9079144329896907,2.4537288659793814,0.922818556701031,1.3122731958762888,2.084452577319588,2.0802525773195875,1.9460061855670103,2.507044329896907,-1336.9141
63.0,1.0,169.0,2.3058123711340204,1.8435628865979383,2.2947577319587626,0.841964948453608,1.240658762886598,2.0101432989690724,2.095411340206186,1.7632082474226805,2.4990896907216493,-1335.9375
63.0,1.0,170.0,2.0863463917525773,1.7577463917525775,2.2261515463917525,0.7251701030927835,1.1155103092783505,1.8753484536082476,2.069543298969072,1.664138144329897,2.4378938144329894,-1334.9609
63.0,1.0,171.0,2.011864948453608,1.7859237113402062,2.2737237113402062,0.8533876288659794,1.26909793814433,1.9837237113402062,2.136449484536082,1.8017587628865979,2.6491030927835046,-1333.9844
63.0,1.0,172.0,2.0682855670103093,1.7141515463917525,2.262579381443299,0.9694278350515465,1.2888721649484536,1.952316494845361,2.0269536082474224,1.7452113402061855,2.7489329896907218,-1333.0078
63.0,1.0,173.0,2.1031896907216496,1.8110494845360823,2.416419587628866,1.0692443298969072,1.3893257731958764,2.0705,2.080034020618557,1.8277886597938144,2.9570721649484537,-1332.0313
63.0,1.0,174.0,2.0487175257731955,1.8118886597938144,2.552523711340206,1.1674731958762887,1.5297618556701031,2.202505154639175,2.3664103092783506,2.014150515463917,3.289498969072165,-1331.0547
63.0,1.0,175.0,2.1578670103092787,1.8174690721649485,2.554179381443299,1.1142865979381442,1.4868195876288661,2.08949793814433,2.528182474226804,2.0393134020618557,3.419796907216495,-1330.0781
63.0,1.0,176.0,2.2466360824742266,1.8279103092783504,2.4617742268041236,0.9364505154639176,1.4210556701030927,1.895183505154639,2.549241237113402,1.7733505154639173,3.2627329896907216,-1329.1016
63.0,1.0,177.0,2.2433804123711343,1.774620618556701,2.4739690721649485,0.7967958762886599,1.6037948453608248,1.787439175257732,2.7228618556701027,1.5221958762886596,3.2932,-1328.125
63.0,1.0,178.0,2.1959896907216496,1.6706340206185568,2.4590525773195875,0.7607103092783505,1.6986515463917524,1.7377247422680413,2.7192546391752574,1.4207288659793817,3.2541216494845364,-1327.1484
63.0,1.0,179.0,1.9321350515463918,1.569537113402062,2.2864835051546395,0.6404536082474227,1.5561525773195877,1.5453041237113405,2.5828845360824744,1.2158268041237115,3.08079793814433,-1326.1719
63.0,1.0,180.0,1.6677371134020618,1.5066721649484538,2.1071226804123713,0.4691773195876288,1.4033865979381444,1.398713402061856,2.4764742268041235,0.9931329896907215,2.943190721649484,-1325.1953
63.0,1.0,181.0,1.6035804123711341,1.3770876288659792,2.0805494845360823,0.3590721649484539,1.4310907216494848,1.2659350515463916,2.5575536082474226,0.884359793814433,2.910216494845361,-1324.2188
63.0,1.0,182.0,1.64529587628866,1.457253608247423,2.1359288659793814,0.44718556701030937,1.6772505154639175,1.276116494845361,2.6911659793814433,0.9184371134020619,2.959271134020618,-1323.2422
63.0,1.0,183.0,1.7312731958762888,1.5977567010309277,2.1262103092783504,0.37819278350515473,1.7503113402061856,1.2852855670103094,2.787875257731959,0.8834443298969072,3.0232711340206184,-1322.2656
63.0,1.0,184.0,1.724863917525773,1.6171412371134022,2.164465979381443,0.2928762886597937,1.6983298969072165,1.140720618556701,2.987818556701031,0.8032134020618557,3.173743298969072,-1321.2891
63.0,1.0,185.0,1.8937,1.7967639175257732,2.4070876288659795,0.5244639175257731,1.8217340206185568,1.3039855670103093,3.2650690721649487,0.9814226804123712,3.480744329896907,-1320.3125
63.0,1.0,186.0,2.0148453608247423,1.9419742268041238,2.5718092783505155,0.5731298969072164,2.080784536082474,1.370161855670103,3.478937113402062,1.0354742268041235,3.684041237113402,-1319.3359
63.0,1.0,187.0,1.9143123711340206,1.8284092783505153,2.471225773195876,0.4517814432989689,2.1431412371134018,1.198741237113402,3.6149494845360826,0.9585113402061856,3.7728103092783507,-1318.3594
63.0,1.0,188.0,1.829312371134021,1.6073711340206185,2.269838144329897,0.12587422680412375,2.0741113402061853,0.9600175257731961,3.575984536082474,0.7604618556701032,3.685356701030928,-1317.3828
63.0,1.0,189.0,2.072140206185567,1.8836680412371134,2.493267010309278,0.17728350515463906,2.3781886597938144,1.0156257731958762,3.728778350515464,0.8287814432989691,3.897157731958763,-1316.4063
63.0,1.0,190.0,2.1183659793814433,2.1551876288659795,2.690235051546392,0.4998443298969072,2.599262886597938,1.195182474226804,3.8202402061855674,0.9875041237113403,4.0701041237113404,-1315.4297
63.0,1.0,191.0,2.1016144329896904,2.1642329896907215,2.6911536082474226,0.6240680412371135,2.6404340206185566,1.1942020618556701,3.839140206185567,1.0501,4.0998824742268045,-1314.4531
63.0,1.0,192.0,2.216660824742268,2.104287628865979,2.617683505154639,0.6485865979381442,2.690720618556701,1.1774680412371132,3.7475123711340204,0.9674422680412372,4.02289381443299,-1313.4766
63.0,1.0,193.0,2.402321649484536,2.2909278350515465,2.7177340206185567,0.6583195876288661,2.8091072164948456,1.2958206185567012,3.8324402061855674,0.9456567010309279,3.885323711340206,-1312.5
63.0,1.0,194.0,2.5620628865979382,2.4965113402061854,2.7448783505154637,0.5454793814432989,2.883,1.2640154639175258,3.8349670103092786,0.868438144329897,3.636336082474227,-1311.5234
63.0,1.0,195.0,2.661560824742268,2.5215072164948458,2.7637876288659795,0.5748226804123714,3.0192896907216498,1.2945185567010307,3.8668752577319587,0.8307515463917529,3.6366463917525773,-1310.5469
63.0,1.0,196.0,2.5719701030927835,2.3069649484536083,2.614896907216495,0.4732391752577319,2.7855453608247425,1.1351690721649483,3.662984536082474,0.6603164948453609,3.471227835051546,-1309.5703
63.0,1.0,197.0,2.491103092783505,2.2442639175257737,2.6122659793814433,0.3216463917525773,2.6575804123711335,0.9476896907216494,3.455416494845361,0.439919587628866,3.2127876288659794,-1308.5938
63.0,1.0,198.0,2.493369072164948,2.3013556701030926,2.7529371134020617,0.2341907216494846,2.748668041237113,0.8939072164948453,3.478707216494845,0.3839278350515463,3.271869072164949,-1307.6172
63.0,1.0,199.0,2.5408762886597933,2.437383505154639,3.0453082474226805,0.44667319587628884,2.886522680412371,1.1063247422680413,3.700705154639175,0.6336103092783505,3.594162886597938,-1306.6406
63.0,1.0,200.0,2.6508051546391753,2.594880412371134,3.2577432989690718,0.562998969072165,3.105360824742268,1.2897793814432992,4.012513402061856,0.8206257731958762,3.90699793814433,-1305.6641
63.0,1.0,201.0,2.685020618556701,2.753354639175258,3.430656701030928,0.5488278350515464,3.34389793814433,1.4179103092783507,4.28198969072165,0.9375690721649486,4.057176288659794,-1304.6875
63.0,1.0,202.0,2.4048896907216495,2.6903742268041237,3.393196907216495,0.3624123711340206,3.2534103092783506,1.439763917525773,4.232562886597938,0.9898556701030928,4.028427835051546,-1303.7109
63.0,1.0,203.0,2.2327979381443304,2.6057309278350513,3.3082886597938144,0.27128969072164955,3.140559793814433,1.437021649484536,4.231822680412371,1.0334958762886597,3.9427309278350515,-1302.7344
63.0,1.0,204.0,2.275934020618557,2.659914432989691,3.346945360824742,0.23627628865979372,3.047844329896907,1.4365329896907217,4.2102103092783505,1.1101855670103093,3.9471319587628866,-1301.7578
63.0,1.0,205.0,2.4944525773195876,2.6907103092783506,3.4025134020618553,0.23532164948453593,2.9823041237113403,1.4336340206185567,4.196472164948453,1.1493762886597938,3.924641237113402,-1300.7813
63.0,1.0,206.0,2.405343298969072,2.7321701030927836,3.4442371134020617,0.289839175257732,3.0481567010309276,1.4387958762886597,4.197846391752577,1.1393762886597938,4.0253762886597935,-1299.8047
63.0,1.0,207.0,2.381098969072165,2.754942268041237,3.5604144329896905,0.4418113402061857,3.199432989690722,1.6538432989690721,4.334780412371134,1.3609505154639172,4.151947422680412,-1298.8281
63.0,1.0,208.0,2.4721835051546392,2.7062556701030926,3.481701030927835,0.4810237113402063,3.0724030927835053,1.5634546391752577,4.2055164948453605,1.3978958762886595,3.912364948453608,-1297.8516
63.0,1.0,209.0,2.498678350515464,2.7419494845360823,3.5224484536082477,0.49835567010309284,3.07761237113402,1.4835154639175259,4.173718556701031,1.3486072164948455,3.811328865979382,-1296.875
63.0,1.0,210.0,2.6333907216494845,2.968117525773196,3.841341237113402,0.688083505154639,3.369079381443299,1.7718628865979382,4.394983505154639,1.5588195876288662,4.022012371134021,-1295.8984
63.0,1.0,211.0,2.6274309278350514,3.213251546391753,4.023627835051546,0.791798969072165,3.5214855670103096,2.004880412371134,4.469426804123711,1.6382876288659791,4.07190206185567,-1294.9219
63.0,1.0,212.0,2.4049268041237113,3.2055484536082473,3.989463917525773,0.7257742268041236,3.3891226804123713,2.0291845360824743,4.369456701030928,1.5973680412371132,4.018698969072164,-1293.9453
63.0,1.0,213.0,2.3619845360824736,3.2308979381443304,3.9963773195876287,0.7106731958762886,3.320611340206186,1.9671237113402062,4.41959587628866,1.4638865979381446,3.9869721649484533,-1292.9688
63.0,1.0,214.0,2.4558237113402064,3.1724309278350513,3.8198092783505153,0.6056917525773197,3.258353608247423,1.8405484536082477,4.285519587628866,1.3536237113402063,3.8607865979381444,-1291.9922
63.0,1.0,215.0,2.2933536082474224,3.060911340206186,3.735430927835052,0.5525546391752576,3.1456896907216496,1.831276288659794,4.050335051546392,1.3412092783505156,3.844451546391753,-1291.0156
63.0,1.0,216.0,2.153654639175258,3.0291721649484535,3.843262886597938,0.526977319587629,3.0854,1.9099195876288662,3.9141525773195878,1.4187577319587628,3.974687628865979,-1290.0391
63.0,1.0,217.0,2.0929298969072163,3.2039360824742267,3.9447639175257736,0.5479886597938144,3.102980412371134,1.9822195876288662,3.831303092783505,1.5276536082474228,4.144210309278351,-1289.0625
63.0,1.0,218.0,2.0495113402061857,3.227410309278351,3.9048443298969073,0.5292711340206185,3.082181443298969,1.9992536082474226,3.761684536082474,1.5421103092783506,4.159774226804124,-1288.0859
63.0,1.0,219.0,2.038115463917526,3.300538144329897,3.9702051546391752,0.5634350515463917,3.119478350515464,2.0859257731958762,3.593849484536082,1.7026536082474224,4.232548453608247,-1287.1094
63.0,1.0,220.0,2.127458762886598,3.4534092783505157,3.9974,0.6245659793814432,3.1021525773195875,2.0993731958762885,3.515262886597938,1.6256391752577322,4.2432402061855665,-1286.1328
63.0,1.0,221.0,2.1513484536082474,3.4426742268041233,4.0185494845360825,0.7132969072164949,3.2055639175257733,2.0771329896907216,3.649056701030928,1.6724814432989692,4.181621649484536,-1285.1563
63.0,1.0,222.0,2.29478969072165,3.321183505154639,4.023446391752577,0.8783144329896907,3.349081443298969,2.209217525773196,3.686879381443299,1.7210597938144327,4.113183505154639,-1284.1797
63.0,1.0,223.0,2.4070474226804124,3.2294072164948453,3.9588525773195875,0.9304917525773195,3.3561804123711343,2.1689515463917526,3.6141381443298966,1.6078278350515465,4.050428865979382,-1283.2031
63.0,1.0,224.0,2.360290721649484,3.1893804123711345,3.9196474226804123,0.9615670103092783,3.322554639175258,2.127805154639175,3.5739927835051546,1.6072989690721649,3.950736082474227,-1282.2266
63.0,1.0,225.0,2.568503092783505,3.4515432989690717,4.166479381443299,1.0775814432989692,3.4179432989690723,2.352260824742268,3.753019587628866,1.7849092783505154,4.145115463917526,-1281.25
63.0,1.0,226.0,2.93220412371134,3.844196907216495,4.409214432989691,1.276137113402062,3.603898969072165,2.4312319587628863,3.8589422680412375,1.8109,4.301627835051547,-1280.2734
63.0,1.0,227.0,2.9343061855670105,3.835177319587629,4.396592783505155,1.3425103092783506,3.5915474226804123,2.337079381443299,3.7957453608247422,1.6307742268041239,4.182911340206186,-1279.2969
63.0,1.0,228.0,3.1789948453608248,3.930965979381443,4.487251546391753,1.5118515463917528,3.612381443298969,2.428919587628866,3.7727886597938145,1.6623247422680412,4.071123711340206,-1278.3203
63.0,1.0,229.0,3.2352525773195877,3.771336082474227,4.29740412371134,1.4781463917525774,3.4666278350515465,2.2922752577319585,3.5699577319587625,1.4666092783505154,3.760085567010309,-1277.3438
63.0,1.0,230.0,3.213365979381443,3.7202721649484536,4.102959793814433,1.2794814432989692,3.444155670103093,2.156319587628866,3.398251546391753,1.3352948453608247,3.677711340206185,-1276.3672
63.0,1.0,231.0,3.0777123711340204,3.6413257731958764,3.852539175257732,0.9860463917525774,3.248720618556701,1.993180412371134,3.1435484536082474,1.135263917525773,3.4832680412371135,-1275.3906
63.0,1.0,232.0,2.763627835051546,3.362360824742268,3.581019587628866,0.7775443298969072,2.8862711340206184,1.6785391752577319,2.89299381443299,0.76679793814433,3.1502711340206186,-1274.4141
63.0,1.0,233.0,2.2183144329896907,3.0695422680412374,3.3606525773195877,0.6429092783505156,2.5298216494845365,1.3728824742268042,2.5547855670103092,0.48204329896907216,2.9186752577319584,-1273.4375
63.0,1.0,234.0,1.794642268041237,3.0213896907216493,3.334962886597938,0.5108072164948454,2.4900309278350514,1.3246329896907216,2.3940474226804125,0.5291463917525772,2.8448876288659792,-1272.4609
63.0,1.0,235.0,1.7031329896907217,3.089460824742268,3.284952577319588,0.39897628865979384,2.546261855670103,1.2528701030927836,2.3831979381443302,0.5988134020618557,2.9244659793814436,-1271.4844
63.0,1.0,236.0,1.6366680412371133,2.9176144329896907,3.1531092783505157,0.33059793814432986,2.4713835051546393,1.1474268041237115,2.2834484536082478,0.5274443298969071,2.8086845360824744,-1270.5078
63.0,1.0,237.0,1.6437907216494845,2.8392319587628867,3.101198969072165,0.32874329896907223,2.354443298969072,1.2323072164948452,2.156522680412371,0.5765742268041238,2.832763917525773,-1269.5313
63.0,1.0,238.0,1.6422742268041237,2.8674309278350516,3.1467082474226804,0.5778185567010309,2.4444525773195878,1.4093453608247424,2.2557865979381444,0.8440247422680411,2.972903092783505,-1268.5547
63.0,1.0,239.0,1.4074608247422682,2.6996391752577322,3.004760824742268,0.5447247422680412,2.2429536082474226,1.3158721649484537,2.270955670103093,0.8649309278350514,2.832803092783505,-1267.5781
63.0,1.0,240.0,1.1025907216494846,2.497596907216495,2.810213402061856,0.29165360824742265,2.117473195876289,1.129783505154639,2.1255103092783503,0.7457319587628866,2.788667010309278,-1266.6016
63.0,1.0,241.0,1.047317525773196,2.3166206185567013,2.667864948453608,0.13682061855670105,2.1396701030927834,0.9552278350515465,1.825761855670103,0.6457649484536083,2.7905175257731956,-1265.625
63.0,1.0,242.0,1.079641237113402,2.2933092783505153,2.6705762886597935,0.16059072164948457,2.1306886597938144,0.9443659793814434,1.7032927835051548,0.6245494845360823,2.7053670103092786,-1264.6484
63.0,1.0,243.0,1.2171340206185568,2.3881711340206184,2.819822680412371,0.383396907216495,2.1930164948453608,1.2594680412371133,1.9632257731958764,0.8019463917525773,2.892307216494845,-1263.6719
63.0,1.0,244.0,1.3724371134020616,2.5011494845360827,2.946561855670103,0.5843608247422679,2.150157731958763,1.4519402061855673,2.0222639175257733,0.9564030927835052,3.152922680412371,-1262.6953
63.0,1.0,245.0,1.4014247422680413,2.6551505154639177,2.922629896907216,0.662541237113402,2.18618969072165,1.554858762886598,2.0194505154639177,1.0544979381443298,3.0920804123711343,-1261.7188
63.0,1.0,246.0,1.4845185567010308,2.635656701030928,2.801444329896907,0.7465237113402062,2.2111422680412374,1.5726195876288662,1.9454453608247424,1.1087371134020618,2.9189896907216495,-1260.7422
63.0,1.0,247.0,1.4555979381443298,2.4551319587628866,2.6227979381443296,0.5876463917525774,2.004551546391753,1.4441,1.7147051546391754,0.9811412371134021,2.701340206185567,-1259.7656
63.0,1.0,248.0,1.2273979381443298,2.274146391752577,2.4510494845360826,0.38000721649484515,1.6886618556701032,1.2500041237113402,1.511864948453608,0.8846618556701031,2.4644515463917527,-1258.7891
63.0,1.0,249.0,1.0584525773195874,2.210436082474227,2.311536082474227,0.3408360824742269,1.5330886597938145,1.220859793814433,1.426374226804124,0.9121175257731957,2.3789536082474223,-1257.8125
63.0,1.0,250.0,0.7493350515463918,2.0434391752577317,2.047558762886598,0.2547,1.3169484536082474,1.0240319587628868,1.1192752577319587,0.7089505154639174,2.0975969072164946,-1256.8359
63.0,1.0,251.0,0.3990515463917526,1.8274742268041235,1.7731329896907215,0.03672164948453613,1.0300752577319587,0.805058762886598,0.8811298969072163,0.41608350515463893,1.8082206185567011,-1255.8594
63.0,1.0,252.0,0.4611237113402061,1.768972164948453,1.7547340206185569,0.12680309278350524,1.0226896907216496,0.935803092783505,0.9156835051546391,0.5324113402061856,1.8194350515463917,-1254.8828
63.0,1.0,253.0,0.6525123711340208,1.8260907216494844,1.8058876288659795,0.2689505154639174,1.1397474226804123,1.0848154639175258,1.0209185567010308,0.7172701030927835,1.9988855670103092,-1253.9063
63.0,1.0,254.0,0.7935432989690719,1.804141237113402,1.8552092783505152,0.27574948453608256,1.160885567010309,1.146279381443299,1.0391979381443297,0.768536082474227,2.143961855670103,-1252.9297
63.0,1.0,255.0,0.8290969072164948,1.5790154639175256,1.7545670103092785,0.31566804123711345,1.1612938144329896,1.159461855670103,0.8486628865979382,0.7555123711340206,2.151655670103093,-1251.9531
63.0,1.0,256.0,0.5580577319587627,1.3839164948453608,1.5559412371134023,0.1710340206185567,1.0072144329896906,0.9870958762886598,0.6233938144329896,0.5668536082474227,1.9700051546391752,-1250.9766
63.0,1.0,257.0,0.21666804123711328,1.162082474226804,1.3759030927835052,0.024368041237113364,0.7436886597938146,0.8059690721649485,0.394058762886598,0.4675226804123712,1.8095278350515465,-1250.0
63.0,1.0,258.0,0.007960824742267818,1.1163453608247424,1.2789020618556703,-0.01631958762886602,0.6463288659793816,0.7622577319587628,0.38327319587628866,0.4752030927835052,1.8197340206185568,-1249.0234
63.0,1.0,259.0,0.04008453608247432,1.1058835051546392,1.2372835051546394,-0.053482474226804244,0.701077319587629,0.7265288659793815,0.4238546391752577,0.5875505154639175,1.856903092783505,-1248.0469
63.0,1.0,260.0,0.17377113402061845,1.0419422680412371,1.1492474226804126,-0.05107319587628856,0.6944556701030928,0.7175278350515464,0.3067762886597939,0.6253515463917525,1.7464340206185565,-1247.0703
63.0,1.0,261.0,-0.04373505154639175,0.906764948453608,1.0286288659793814,-0.023796907216494984,0.5196608247422682,0.7362783505154639,0.27608453608247413,0.6111721649484536,1.641531958762887,-1246.0938
63.0,1.0,262.0,0.06629793814432967,0.7824123711340208,0.9801628865979383,0.06178247422680402,0.4151556701030928,0.7989896907216493,0.20102886597938155,0.6134072164948454,1.584159793814433,-1245.1172
63.0,1.0,263.0,0.5017072164948452,1.0345329896907216,1.147980412371134,0.3623835051546391,0.5140134020618558,1.0430288659793814,0.09590206185566998,0.6951618556701031,1.5330855670103092,-1244.1406
63.0,1.0,264.0,0.5423752577319589,0.9774927835051547,0.9389041237113401,0.2322845360824742,0.2404556701030927,0.9692618556701031,-0.34264329896907214,0.5205175257731959,1.1469061855670102,-1243.1641
63.0,1.0,265.0,0.5994762886597939,0.8524134020618553,0.8000690721649485,0.2357319587628866,0.1269484536082476,0.7990175257731957,-0.5521927835051544,0.35854536082474203,0.8303360824742267,-1242.1875
63.0,1.0,266.0,0.6786886597938143,0.8436494845360825,0.7768268041237113,0.42086804123711313,0.20412371134020607,0.7785659793814432,-0.3930494845360823,0.4041628865979381,0.7699958762886597,-1241.2109
63.0,1.0,267.0,0.5186773195876286,0.6927422680412374,0.6067195876288658,0.2762773195876289,0.009319587628865917,0.7202556701030928,-0.533618556701031,0.29012989690721647,0.6340556701030928,-1240.2344
63.0,1.0,268.0,0.23602680412371135,0.46564742268041237,0.44138556701030957,0.06282886597938138,-0.26667938144329884,0.6518103092783505,-0.9016309278350513,0.15745154639175274,0.4415206185567007,-1239.2578
63.0,1.0,269.0,0.2394288659793814,0.252501030927835,0.36667731958762884,0.05230309278350519,-0.42557113402061864,0.5345000000000001,-1.0714701030927836,-0.01622268041237121,0.39309381443298974,-1238.2813
63.0,1.0,270.0,0.20173814432989706,0.1921927835051548,0.2931082474226804,0.07356597938144332,-0.38737113402061857,0.6092711340206186,-1.1332824742268042,0.06539896907216503,0.36490000000000006,-1237.3047
63.0,1.0,271.0,0.19815463917525775,0.15541752577319615,0.1651072164948455,0.07779072164948457,-0.3564773195876287,0.701058762886598,-1.1703670103092785,0.1938164948453607,0.582080412371134,-1236.3281
63.0,1.0,272.0,0.09636701030927822,0.2931752577319587,0.23324123711340192,0.07548556701030933,-0.23359999999999997,0.7061463917525773,-0.9368814432989692,0.3382783505154638,0.9641329896907218,-1235.3516
63.0,1.0,273.0,-0.4281134020618556,0.04867731958762889,0.04578453608247408,-0.17092989690721652,-0.2978835051546391,0.49330412371134025,-1.0192103092783507,0.11554432989690727,0.9084268041237114,-1234.375
63.0,1.0,274.0,-0.7903515463917525,-0.40843505154639176,-0.41688144329896915,-0.4799639175257732,-0.5613278350515463,0.15243092783505158,-1.3303206185567011,-0.22606391752577315,0.5585154639175256,-1233.3984
63.0,1.0,275.0,-0.5425546391752579,-0.23843402061855679,-0.3608876288659796,-0.3079948453608248,-0.33634639175257725,0.25699999999999984,-1.24930412371134,-0.030051546391752348,0.7486855670103092,-1232.4219
63.0,1.0,276.0,-0.3555061855670102,-0.10174226804123719,-0.2878175257731959,-0.27935773195876296,-0.21189072164948458,0.38060927835051556,-1.2179309278350516,0.19988556701030927,0.8638154639175261,-1231.4453
63.0,1.0,277.0,-0.2263762886597939,-0.2672917525773196,-0.4658432989690723,-0.3557536082474227,-0.26995051546391763,0.27171237113402047,-1.2142659793814434,0.10252989690721655,0.7597948453608246,-1230.4688
63.0,1.0,278.0,-0.3862567010309279,-0.5306051546391753,-0.6316072164948453,-0.5038855670103092,-0.365321649484536,0.067260824742268,-1.1882804123711341,-0.06552680412371123,0.6235061855670102,-1229.4922
63.0,1.0,279.0,-0.5579061855670104,-0.5937154639175258,-0.6901814432989691,-0.5977742268041236,-0.4150123711340206,-0.07463814432989689,-1.3431030927835053,-0.19583814432989688,0.44879587628865975,-1228.5156
63.0,1.0,280.0,-0.41619278350515443,-0.5479391752577321,-0.6360876288659792,-0.556745360824742,-0.41173402061855685,-0.10410206185567027,-1.3796041237113403,-0.3144061855670103,0.34423711340206176,-1227.5391
63.0,1.0,281.0,-0.3901371134020617,-0.525777319587629,-0.6120298969072167,-0.49333917525773185,-0.3176670103092784,-0.13696804123711323,-1.3354288659793814,-0.3608072164948453,0.41047319587628867,-1226.5625
63.0,1.0,282.0,-0.37896288659793814,-0.5107175257731957,-0.7018505154639173,-0.5323329896907216,-0.35979278350515465,-0.20107938144329895,-1.2453958762886597,-0.5439927835051547,0.39194536082474235,-1225.5859
63.0,1.0,283.0,-0.28957422680412376,-0.5468639175257732,-0.7894876288659795,-0.6831597938144333,-0.4773546391752576,-0.35186082474226793,-1.2127226804123714,-0.7775154639175258,0.2905742268041237,-1224.6094
63.0,1.0,284.0,-0.3827731958762887,-0.5868938144329895,-0.9252793814432991,-0.8778061855670103,-0.4706639175257731,-0.5988979381443299,-1.2798680412371133,-0.9645711340206187,0.1744216494845361,-1223.6328
63.0,1.0,285.0,-0.34746597938144347,-0.4840556701030928,-0.8831876288659792,-0.8214515463917524,-0.3597144329896907,-0.4692670103092784,-1.212938144329897,-0.8046505154639175,0.20885670103092788,-1222.6563
63.0,1.0,286.0,-0.3075618556701031,-0.44805567010309283,-0.8681175257731958,-0.6814587628865978,-0.391156701030928,-0.40911134020618545,-1.2674175257731959,-0.7251896907216495,0.1930865979381443,-1221.6797
63.0,1.0,287.0,-0.4128298969072164,-0.5615515463917524,-0.8899391752577319,-0.5703927835051545,-0.34164020618556706,-0.5146123711340206,-1.2800639175257733,-0.7949123711340206,0.17934226804123737,-1220.7031
63.0,1.0,288.0,-0.648340206185567,-0.8236907216494845,-1.051059793814433,-0.7939113402061856,-0.49704948453608233,-0.7305711340206187,-1.4389360824742268,-1.054657731958763,-0.04579587628865972,-1219.7266
63.0,1.0,289.0,-0.7268381443298967,-0.7687103092783503,-1.0633659793814434,-0.9069546391752579,-0.5674309278350517,-0.721598969072165,-1.4993597938144327,-1.1137340206185564,-0.18103092783505179,-1218.75
63.0,1.0,290.0,-0.6225226804123712,-0.5625092783505155,-0.989580412371134,-0.8011793814432988,-0.5567412371134021,-0.7074072164948456,-1.4448319587628866,-1.1997391752577318,-0.18689484536082474,-1217.7734
63.0,1.0,291.0,-0.330939175257732,-0.39166185567010303,-0.7978237113402062,-0.6617494845360825,-0.46687731958762896,-0.6165474226804125,-1.2925154639175258,-1.2956793814432987,-0.05550103092783503,-1216.7969
63.0,1.0,292.0,-0.09552164948453604,-0.16021237113402073,-0.49530515463917524,-0.4834474226804122,-0.11601237113402064,-0.3776731958762886,-0.9319536082474226,-1.1415257731958763,0.22037010309278365,-1215.8203
63.0,1.0,293.0,-0.292998969072165,-0.12704742268041244,-0.4259835051546392,-0.47094432989690727,0.025922680412371002,-0.4157711340206184,-0.8610103092783505,-1.17349793814433,0.15861134020618553,-1214.8438
63.0,1.0,294.0,-0.4907690721649485,-0.18462886597938127,-0.3582969072164949,-0.5750824742268041,0.08002371134020617,-0.5057855670103094,-0.8140948453608247,-1.221522680412371,0.15404020618556713,-1213.8672
63.0,1.0,295.0,-0.40666701030927827,-0.25470103092783514,-0.46083402061855655,-0.6970762886597937,0.09791649484536073,-0.6675474226804122,-0.8572020618556702,-1.362560824742268,0.14529690721649463,-1212.8906
63.0,1.0,296.0,-0.6744917525773196,-0.41911443298969087,-0.6756907216494845,-1.006298969072165,0.03302783505154638,-0.8590154639175258,-0.9581144329896906,-1.4859072164948453,0.026204123711340264,-1211.9141
63.0,1.0,297.0,-0.9177268041237114,-0.4943463917525774,-0.7254092783505153,-1.1739804123711342,-0.055907216494845396,-0.9555319587628865,-0.8881505154639175,-1.6499463917525774,0.02330721649484519,-1210.9375
63.0,1.0,298.0,-0.7028824742268042,-0.47474948453608246,-0.6892144329896908,-1.083760824742268,0.017887628865979274,-0.8728608247422681,-0.832017525773196,-1.6201659793814434,-0.06777938144329912,-1209.9609
63.0,1.0,299.0,-0.6653845360824742,-0.5301876288659796,-0.6025494845360823,-0.9902835051546393,0.10486804123711355,-0.680460824742268,-0.754339175257732,-1.4039618556701028,-0.06991030927835032,-1208.9844
63.0,1.0,300.0,-0.6188443298969071,-0.32608556701030933,-0.4209278350515466,-0.881916494845361,0.09029587628865986,-0.5776340206185566,-0.6323020618556702,-1.2952257731958763,0.12816804123711326,-1208.0078
63.0,1.0,301.0,-0.3669752577319589,-0.04827938144329896,-0.29993402061855673,-0.7402206185567011,0.07354536082474225,-0.5370721649484537,-0.6560030927835053,-1.2331144329896908,0.2407927835051549,-1207.0313
63.0,1.0,302.0,-0.31410721649484535,0.019062886597938308,-0.34087525773195887,-0.7090525773195876,-0.0033639175257733542,-0.4322505154639176,-0.7194876288659794,-1.2657762886597939,0.14092783505154632,-1206.0547
63.0,1.0,303.0,-0.2695195876288662,0.1064628865979381,-0.25052783505154635,-0.5894515463917523,0.12892061855670103,-0.2943216494845361,-0.695156701030928,-1.2129886597938144,0.06314742268041244,-1205.0781
63.0,1.0,304.0,-0.2539268041237111,0.22183402061855675,-0.1731278350515465,-0.6938010309278351,0.21224639175257728,-0.3398639175257733,-0.6559030927835053,-1.1935134020618559,0.0655309278350516,-1204.1016
63.0,1.0,305.0,-0.5422134020618555,0.0008742268041235418,-0.31791134020618556,-0.8456525773195877,0.07094123711340186,-0.5176567010309278,-0.7618711340206186,-1.2367865979381445,-0.007038144329896835,-1203.125
63.0,1.0,306.0,-0.6378226804123711,-0.086259793814433,-0.3199701030927834,-0.8364402061855669,-0.03233505154639186,-0.5371175257731959,-0.7924927835051546,-1.1426154639175259,0.1238453608247424,-1202.1484
63.0,1.0,307.0,-0.775273195876289,-0.1336237113402062,-0.3191711340206184,-0.9058752577319589,-0.1762783505154639,-0.45990927835051526,-0.7585525773195876,-1.1638340206185567,0.03488041237113423,-1201.1719
63.0,1.0,308.0,-0.9809319587628866,-0.4730659793814433,-0.7192154639175257,-1.1207979381443298,-0.459121649484536,-0.5963649484536082,-1.0724865979381444,-1.3327515463917528,-0.37853195876288664,-1200.1953
63.0,1.0,309.0,-1.1796237113402064,-0.6146123711340207,-0.9449886597938144,-1.199496907216495,-0.5207804123711339,-0.6799577319587629,-1.2972536082474229,-1.4031061855670104,-0.5394443298969073,-1199.2188
63.0,1.0,310.0,-1.1355505154639172,-0.5910731958762887,-0.8515278350515463,-1.1062670103092784,-0.48787835051546397,-0.633516494845361,-1.344145360824742,-1.3638865979381445,-0.5223123711340206,-1198.2422
63.0,1.0,311.0,-0.8412958762886601,-0.32186391752577326,-0.6479268041237114,-0.9862587628865979,-0.34599278350515467,-0.4272329896907216,-1.1527175257731959,-1.1765226804123712,-0.32046804123711337,-1197.2656
63.0,1.0,312.0,-0.6152835051546393,0.04961752577319601,-0.3652010309278351,-0.7142731958762886,-0.1551876288659794,-0.15269484536082475,-0.9267443298969074,-0.8466175257731959,-0.186403092783505,-1196.2891
63.0,1.0,313.0,-0.4133030927835053,0.2856453608247422,-0.08869896907216505,-0.49978865979381437,0.050457731958762894,0.06772886597938141,-0.7326298969072165,-0.6132773195876288,-0.07348762886597943,-1195.3125
63.0,1.0,314.0,-0.0580092783505154,0.31242371134020636,-0.019717525773195778,-0.4260917525773197,0.11785979381443322,0.13247731958762873,-0.720278350515464,-0.6145288659793814,-0.08971752577319582,-1194.3359
63.0,1.0,315.0,0.16179484536082472,0.1635463917525772,-0.17861340206185583,-0.578181443298969,-0.058228865979381435,0.052414432989690694,-0.8695051546391754,-0.7999360824742269,-0.3553288659793814,-1193.3594
63.0,1.0,316.0,0.183718556701031,0.09802577319587649,-0.24467216494845342,-0.6978762886597938,-0.08676597938144338,-0.005887628865979349,-1.0124711340206185,-0.9178536082474226,-0.6067072164948456,-1192.3828
63.0,1.0,317.0,0.18774020618556725,0.2588041237113401,-0.1676711340206185,-0.5996989690721649,-0.06218350515463907,0.12385051546391757,-1.1717329896907216,-0.8253288659793813,-0.6313164948453609,-1191.4063
63.0,1.0,318.0,0.48156391752577343,0.5118360824742266,0.01852061855670116,-0.2886443298969074,0.05398659793814443,0.24996494845360834,-1.151061855670103,-0.6991979381443298,-0.5564896907216496,-1190.4297
63.0,1.0,319.0,0.719664948453608,0.5222701030927835,0.11368762886597926,-0.1532680412371134,-0.021544329896907074,0.21846701030927834,-1.0770505154639176,-0.7252164948453608,-0.619244329896907,-1189.4531
63.0,1.0,320.0,0.62750412371134,0.4855134020618555,0.045550515463917474,-0.3457927835051545,-0.1896515463917525,0.09778556701030941,-1.1574721649484536,-0.7751989690721649,-0.8433082474226805,-1188.4766
63.0,1.0,321.0,0.5956463917525774,0.7503432989690721,0.2248701030927834,-0.2010484536082475,-0.11707628865979387,0.3173835051546392,-1.165419587628866,-0.5806340206185567,-0.8785639175257731,-1187.5
63.0,1.0,322.0,0.9012453608247424,1.0650680412371134,0.5328773195876289,0.15742164948453613,-0.0207268041237114,0.6459886597938146,-0.913522680412371,-0.2562979381443298,-0.6036876288659794,-1186.5234
63.0,1.0,323.0,0.9431680412371134,1.2136453608247424,0.7196278350515464,0.3865515463917525,0.1207288659793813,0.7943453608247423,-0.7328134020618556,-0.07969793814432986,-0.33688453608247426,-1185.5469
63.0,1.0,324.0,0.9440742268041238,1.232136082474227,0.8531298969072164,0.3719731958762885,0.22178969072164956,0.9726319587628867,-0.6764835051546392,0.1494463917525774,-0.06802783505154644,-1184.5703
63.0,1.0,325.0,1.0530556701030929,1.1894463917525773,0.8807412371134022,0.3553546391752578,0.20127010309278343,1.0838886597938142,-0.6117927835051545,0.2514402061855669,-0.034170103092783455,-1183.5938
63.0,1.0,326.0,1.0218701030927835,1.0867546391752576,0.8009268041237113,0.262258762886598,0.14071649484536103,1.0221268041237113,-0.6987329896907217,0.18682061855670126,-0.114954639175258,-1182.6172
63.0,1.0,327.0,1.0767907216494845,1.0658329896907215,0.7025216494845361,0.16949587628865986,0.1872628865979382,0.9272432989690723,-0.8436175257731957,0.1027618556701031,-0.14888247422680412,-1181.6406
63.0,1.0,328.0,1.2395670103092784,1.1778845360824743,0.782480412371134,0.35270103092783495,0.3346556701030928,1.041343298969072,-0.6976783505154638,0.1648278350515463,-0.16254123711340204,-1180.6641
63.0,1.0,329.0,1.403401030927835,1.3236185567010308,0.94500412371134,0.6912443298969073,0.45608556701030933,1.1698134020618558,-0.591219587628866,0.27850309278350505,-0.11033608247422684,-1179.6875
63.0,1.0,330.0,1.6524927835051548,1.6525051546391754,1.2570628865979383,0.9665927835051547,0.6622577319587629,1.460663917525773,-0.36829072164948456,0.5786432989690722,0.1972412371134022,-1178.7109
63.0,1.0,331.0,1.8975752577319587,1.7138371134020618,1.397583505154639,1.0954113402061856,0.8476948453608247,1.6780742268041238,-0.15844329896907217,0.7740577319587629,0.4514814432989692,-1177.7344
63.0,1.0,332.0,2.153501030927835,1.858059793814433,1.5868773195876291,1.030701030927835,1.0298948453608248,1.737101030927835,-0.06896185567010327,0.8837639175257732,0.5674288659793815,-1176.7578
63.0,1.0,333.0,2.462030927835052,2.2122092783505156,1.9222556701030928,1.1506350515463917,1.2756876288659795,1.929079381443299,0.1731762886597938,1.1135536082474227,0.8170618556701031,-1175.7813
63.0,1.0,334.0,2.3741278350515462,2.2449917525773193,1.9695742268041234,1.1869360824742268,1.2825113402061856,1.921605154639175,0.3678525773195877,1.1577051546391752,0.8826381443298968,-1174.8047
63.0,1.0,335.0,2.1006587628865976,1.9992072164948451,1.8471505154639174,1.0667360824742267,1.0871350515463918,1.6432680412371132,0.29064742268041244,0.9419082474226804,0.6767793814432994,-1173.8281
63.0,1.0,336.0,2.216861855670103,2.147246391752577,1.9810814432989692,1.1131618556701033,1.1693680412371132,1.640103092783505,0.3749927835051547,1.0235051546391754,0.8500319587628868,-1172.8516
63.0,1.0,337.0,2.292962886597938,2.3629515463917525,2.2071773195876285,1.236640206185567,1.3888969072164947,1.8644670103092782,0.617680412371134,1.1909773195876288,1.1470979381443298,-1171.875
63.0,1.0,338.0,2.33079793814433,2.3791278350515466,2.3328082474226806,1.357996907216495,1.504016494845361,2.0514546391752577,0.7615010309278349,1.2897742268041237,1.274698969072165,-1170.8984
63.0,1.0,339.0,2.5781670103092784,2.595243298969072,2.4830020618556703,1.4595309278350515,1.7575814432989694,2.283344329896907,1.024965979381443,1.5443814432989695,1.517921649484536,-1169.9219
63.0,1.0,340.0,2.7160907216494845,2.8422144329896906,2.6308000000000002,1.5894381443298968,1.8532494845360823,2.442598969072165,1.135856701030928,1.7650474226804127,1.7665278350515465,-1168.9453
63.0,1.0,341.0,2.890965979381443,3.083298969072165,2.950888659793814,1.799957731958763,2.0118041237113404,2.609084536082474,1.4551,1.972321649484536,1.9751247422680411,-1167.9688
63.0,1.0,342.0,2.980912371134021,3.1942164948453606,3.0782453608247424,1.832557731958763,2.1949257731958762,2.7316680412371133,1.6376793814432988,2.094879381443299,2.1952381443298967,-1166.9922
63.0,1.0,343.0,2.8603515463917524,3.16699381443299,3.0423876288659795,1.686940206185567,2.181546391752577,2.6956453608247424,1.454017525773196,2.0575731958762886,2.2546505154639176,-1166.0156
63.0,1.0,344.0,2.7649319587628867,3.1358515463917525,2.943603092783505,1.546598969072165,1.9759680412371134,2.540650515463917,1.3772041237113404,1.78400412371134,2.1427412371134023,-1165.0391
63.0,1.0,345.0,2.7691639175257734,3.1605969072164948,2.911457731958763,1.5105216494845362,1.8982917525773193,2.4498876288659797,1.308778350515464,1.665398969072165,2.0806432989690724,-1164.0625
63.0,1.0,346.0,2.9052030927835046,3.1839814432989693,3.0777505154639178,1.6556649484536081,1.9501226804123712,2.5754298969072167,1.4336731958762887,1.8582680412371135,2.2025896907216493,-1163.0859
63.0,1.0,347.0,2.924059793814433,3.1921051546391754,3.186294845360825,1.7223175257731957,2.0504144329896907,2.764523711340206,1.8618144329896908,2.0683000000000002,2.437159793814433,-1162.1094
63.0,1.0,348.0,2.8383154639175263,3.174931958762887,3.1256804123711337,1.6294257731958761,1.995279381443299,2.7638824742268038,2.0781113402061853,2.0901711340206184,2.4445989690721652,-1161.1328
63.0,1.0,349.0,2.650168041237113,3.01599381443299,2.8590268041237112,1.5250742268041237,1.7812536082474226,2.520338144329897,1.814938144329897,1.9540876288659794,2.287796907216495,-1160.1563
63.0,1.0,350.0,2.616121649484536,2.8108422680412373,2.675019587628866,1.5402000000000002,1.717703092783505,2.4075886597938143,1.6678793814432993,1.8742432989690723,2.1745690721649487,-1159.1797
63.0,1.0,351.0,2.7876752577319586,2.8742103092783506,2.84890412371134,1.675782474226804,1.91859587628866,2.4800051546391755,1.6461257731958765,1.9834556701030928,2.1913659793814433,-1158.2031
63.0,1.0,352.0,2.801534020618557,3.012184536082474,2.8992113402061856,1.7970463917525774,1.9524855670103092,2.578665979381443,1.5862639175257733,2.102886597938144,2.246061855670103,-1157.2266
63.0,1.0,353.0,2.722885567010309,2.9585402061855675,2.792735051546392,1.7915814432989692,1.8479515463917526,2.521177319587629,1.4684051546391754,2.0456639175257734,2.15019793814433,-1156.25
63.0,1.0,354.0,2.593956701030928,2.7724948453608245,2.5957814432989688,1.5585958762886598,1.6112515463917525,2.2967752577319587,1.2315546391752579,1.7708515463917527,1.9518103092783505,-1155.2734
63.0,1.0,355.0,2.6769958762886596,2.936886597938144,2.669127835051546,1.6292597938144329,1.6634072164948455,2.4209670103092784,1.3842247422680414,1.904381443298969,2.1082556701030923,-1154.2969
63.0,1.0,356.0,3.207227835051546,3.489992783505155,3.018759793814433,2.027436082474227,2.1141319587628864,2.871575257731959,1.7788185567010308,2.260961855670103,2.541435051546392,-1153.3203
63.0,1.0,357.0,3.5050742268041235,3.666059793814433,3.2360979381443298,2.1972505154639173,2.359115463917526,3.1530896907216492,2.038140206185567,2.5017092783505155,2.891678350515464,-1152.3438
63.0,1.0,358.0,3.2249134020618557,3.453521649484536,3.180564948453608,2.0604041237113404,2.2000329896907216,3.1934804123711342,1.9895422680412371,2.5325082474226805,2.9688824742268043,-1151.3672
63.0,1.0,359.0,2.9755505154639175,3.2069226804123714,2.9039288659793816,1.9264505154639175,2.003657731958763,3.0335731958762886,1.9732639175257731,2.485094845360825,2.8897041237113403,-1150.3906
63.0,1.0,360.0,2.946153608247423,3.0448731958762885,2.6855494845360828,1.8983628865979385,1.9420587628865982,2.9117247422680412,1.8914896907216496,2.4056525773195876,2.826031958762887,-1149.4141
63.0,1.0,361.0,2.786759793814433,2.8613082474226803,2.655701030927835,1.9503670103092783,1.9218567010309278,2.9144969072164946,1.799958762886598,2.4080917525773198,2.947159793814433,-1148.4375
63.0,1.0,362.0,2.5871144329896905,2.6408701030927837,2.6055463917525774,1.855459793814433,1.8035742268041237,2.87150824742268,1.7112360824742272,2.3855134020618554,3.09289793814433,-1147.4609
63.0,1.0,363.0,2.520469072164948,2.520058762886598,2.485945360824742,1.7093556701030928,1.7565896907216496,2.7333432989690722,1.5902546391752577,2.316784536082474,3.0047639175257728,-1146.4844
63.0,1.0,364.0,2.5399092783505153,2.474630927835052,2.487315463917526,1.6232298969072165,1.758820618556701,2.6006,1.585618556701031,2.2933371134020617,3.0262144329896907,-1145.5078
63.0,1.0,365.0,2.596186597938144,2.52650206185567,2.6804494845360827,1.7694412371134023,1.8423618556701031,2.7256948453608247,1.7516793814432992,2.428181443298969,3.3316711340206187,-1144.5313
63.0,1.0,366.0,2.539775257731959,2.434236082474227,2.677771134020618,1.8597639175257732,1.8835309278350514,2.761812371134021,1.8622175257731959,2.4816536082474223,3.3836948453608247,-1143.5547
63.0,1.0,367.0,2.4835175257731956,2.460594845360825,2.7480556701030925,1.9082536082474226,2.0996371134020615,2.7858412371134023,2.0313051546391754,2.6364092783505155,3.550855670103093,-1142.5781
63.0,1.0,368.0,2.510870103092784,2.584923711340206,2.8244298969072164,1.956360824742268,2.1079752577319586,2.7538371134020623,2.093387628865979,2.5907268041237113,3.5714298969072162,-1141.6016
63.0,1.0,369.0,2.378845360824742,2.553845360824742,2.7815484536082473,1.8276907216494847,2.027986597938144,2.6144134020618557,1.9642082474226803,2.5166041237113403,3.640675257731959,-1140.625
63.0,1.0,370.0,2.0262288659793817,2.2777835051546393,2.5682237113402064,1.5188804123711341,1.8420762886597937,2.463746391752577,1.8801701030927835,2.4588453608247423,3.6349247422680415,-1139.6484
63.0,1.0,371.0,1.8397597938144328,2.0390618556701035,2.3896711340206185,1.3156195876288659,1.7720463917525773,2.412157731958763,1.9355237113402062,2.3788463917525773,3.597224742268041,-1138.6719
63.0,1.0,372.0,1.81940618556701,1.9287731958762888,2.3293072164948456,1.1790855670103093,1.6499865979381443,2.326136082474227,1.940317525773196,2.3122938144329894,3.6766329896907215,-1137.6953
63.0,1.0,373.0,1.7129329896907215,1.8697577319587628,2.409579381443299,1.1352855670103092,1.6712298969072164,2.339213402061856,2.099121649484536,2.421094845360825,3.8739051546391754,-1136.7188
63.0,1.0,374.0,1.5932886597938147,1.76700206185567,2.349260824742268,1.1119103092783507,1.7121938144329898,2.267317525773196,2.227156701030928,2.5081721649484536,4.044797938144329,-1135.7422
63.0,1.0,375.0,1.3299690721649482,1.5400206185567011,2.0045855670103094,0.9527371134020618,1.4364711340206187,2.0029824742268043,2.0433123711340206,2.255722680412371,3.8785494845360824,-1134.7656
63.0,1.0,376.0,1.0566422680412373,1.2282092783505154,1.6456072164948452,0.7809257731958764,1.2052783505154638,1.8288072164948455,1.8137154639175257,2.0110391752577317,3.5690556701030927,-1133.7891
63.0,1.0,377.0,0.9618340206185567,1.2199185567010309,1.7183896907216496,0.878879381443299,1.2503391752577322,1.937922680412371,1.662359793814433,2.14090824742268,3.608319587628866,-1132.8125
63.0,1.0,378.0,1.0685175257731956,1.4002061855670103,1.8816463917525774,1.0508453608247423,1.4131701030927837,2.1882082474226805,1.749780412371134,2.3655865979381443,3.7812567010309275,-1131.8359
63.0,1.0,379.0,1.0357092783505157,1.4974670103092786,2.1009072164948455,1.0988061855670104,1.6455175257731958,2.3619000000000003,1.9832577319587632,2.6450484536082475,3.8403144329896906,-1130.8594
63.0,1.0,380.0,0.9279793814432988,1.3322412371134016,2.080913402061856,0.9149453608247422,1.7480948453608247,2.310644329896907,2.021479381443299,2.657324742268041,3.834498969072165,-1129.8828
63.0,1.0,381.0,0.9537969072164949,1.2935360824742268,2.021582474226804,0.7878360824742268,1.6407989690721652,2.1768505154639177,1.8742690721649484,2.5268134020618556,3.8441876288659795,-1128.9063
63.0,1.0,382.0,0.8860752577319587,1.1720556701030926,1.8192618556701028,0.6278835051546391,1.4914030927835054,1.938840206185567,1.857818556701031,2.413644329896907,3.7193371134020623,-1127.9297
63.0,1.0,383.0,0.8964020618556702,1.0221319587628865,1.65,0.4958175257731958,1.3950628865979382,1.7632113402061855,1.9259958762886598,2.347303092783505,3.6979536082474227,-1126.9531
63.0,1.0,384.0,0.8529958762886598,0.7978793814432988,1.4884391752577317,0.44799896907216485,1.377980412371134,1.6106536082474225,1.772257731958763,2.1747896907216493,3.574962886597938,-1125.9766
63.0,1.0,385.0,0.7749329896907216,0.7162051546391751,1.3500907216494844,0.37296391752577324,1.1610536082474225,1.4680381443298969,1.5618525773195877,1.9508701030927837,3.2974123711340204,-1125.0
63.0,1.0,386.0,0.7627948453608246,0.7669123711340208,1.2852618556701032,0.29093298969072173,0.9465701030927834,1.3541319587628868,1.4446319587628864,1.8193010309278352,3.029418556701031,-1124.0234
63.0,1.0,387.0,0.4086092783505155,0.5326938144329897,1.0505072164948455,-0.03718041237113408,0.704359793814433,1.0622237113402062,1.2341824742268044,1.5591237113402063,2.7395463917525773,-1123.0469
63.0,1.0,388.0,0.09313195876288662,0.42343298969072174,0.9320350515463919,-0.16567113402061848,0.6679206185567009,0.9625855670103092,1.1570948453608247,1.4043886597938147,2.7247865979381443,-1122.0703
63.0,1.0,389.0,0.2794360824742268,0.5164340206185567,0.907460824742268,-0.055699999999999916,0.6884453608247422,0.9336381443298968,1.1295278350515463,1.2439257731958764,2.6071505154639176,-1121.0938
63.0,1.0,390.0,0.6151092783505154,0.5273907216494846,0.82599587628866,0.06720309278350509,0.7427061855670102,0.8984319587628866,1.2669556701030926,1.1103639175257733,2.4531494845360826,-1120.1172
63.0,1.0,391.0,0.773281443298969,0.5388546391752578,0.8252556701030929,0.16178453608247412,0.7751329896907218,0.9266701030927835,1.391558762886598,1.1202628865979383,2.4082371134020617,-1119.1406
63.0,1.0,392.0,0.583137113402062,0.4895690721649484,0.7638072164948456,0.0952865979381443,0.7238412371134022,0.8759329896907215,1.3117587628865979,1.1640453608247423,2.1985536082474226,-1118.1641
63.0,1.0,393.0,0.32054226804123725,0.29002061855670097,0.5939876288659793,0.062520618556701,0.6201989690721649,0.8852721649484537,1.0938051546391752,1.2427288659793814,2.056423711340206,-1117.1875
63.0,1.0,394.0,0.22840721649484536,0.03196185567010299,0.35947938144329905,-0.04125773195876286,0.4873577319587631,0.6984175257731958,0.7959257731958763,1.0564855670103095,1.6999731958762887,-1116.2109
63.0,1.0,395.0,0.22284226804123727,0.01659999999999998,0.2801247422680414,-0.10247731958762904,0.3754618556701031,0.6281835051546392,0.6612896907216493,0.8761670103092785,1.3692278350515463,-1115.2344
63.0,1.0,396.0,0.19354020618556686,0.0738938144329897,0.3073494845360825,-0.018987628865979336,0.39485567010309275,0.6923845360824743,0.5620010309278352,0.8897030927835052,1.3085061855670104,-1114.2578
63.0,1.0,397.0,0.11400721649484538,0.0769443298969073,0.1784608247422681,0.02270618556701024,0.17813092783505155,0.7154072164948453,0.35594123711340203,0.722156701030928,1.189403092783505,-1113.2813
63.0,1.0,398.0,0.008872164948453552,-0.06514536082474244,-0.0029742268041238118,-0.04655567010309297,-0.06707835051546397,0.6106237113402061,0.3227030927835051,0.5169938144329896,0.9960061855670105,-1112.3047
63.0,1.0,399.0,-0.07092577319587642,-0.17214639175257732,-0.12308350515463903,-0.1678690721649485,-0.14138659793814434,0.4854835051546392,0.20782474226804112,0.4065608247422679,0.7993494845360825,-1111.3281
63.0,1.0,400.0,0.074678350515464,-0.04514432989690718,-0.012409278350515396,-0.2543360824742269,-0.01124536082474243,0.5161979381443299,0.22176082474226777,0.468919587628866,0.8537298969072165,-1110.3516
63.0,1.0,401.0,0.09498865979381442,-0.03428659793814433,-0.05005773195876293,-0.30958556701030937,0.023810309278350438,0.4171195876288659,0.2741979381443302,0.3838216494845361,0.8697360824742267,-1109.375
63.0,1.0,402.0,0.17741237113402042,-0.02798041237113405,-0.02312061855670097,-0.09467835051546408,0.2269175257731958,0.48461752577319595,0.34447835051546377,0.35950412371134016,0.9119917525773196,-1108.3984
63.0,1.0,403.0,0.17597938144329875,-0.007792783505154598,0.039256701030927765,-0.0645948453608248,0.2698298969072165,0.48612371134020615,0.3942773195876289,0.3470030927835053,0.9285752577319587,-1107.4219
63.0,1.0,404.0,0.18960103092783492,0.15442989690721648,0.13103814432989686,0.05214536082474226,0.27681752577319585,0.45096288659793815,0.3834175257731961,0.20944742268041225,0.7294855670103093,-1106.4453
63.0,1.0,405.0,0.36812577319587636,0.3232649484536084,0.13567731958762866,0.28269278350515475,0.26845979381443297,0.4680865979381442,0.275537113402062,0.13366288659793812,0.5866845360824741,-1105.4688
63.0,1.0,406.0,0.5247113402061856,0.5061350515463919,0.3568319587628867,0.5391381443298969,0.34150309278350516,0.6223154639175257,0.31066391752577327,0.1934061855670104,0.6103154639175257,-1104.4922
63.0,1.0,407.0,0.4470402061855669,0.5533855670103094,0.513219587628866,0.4956061855670103,0.4530690721649485,0.7475020618556701,0.2998896907216494,0.27111752577319576,0.6268556701030927,-1103.5156
63.0,1.0,408.0,0.30746391752577323,0.6919701030927835,0.6200845360824742,0.4208288659793815,0.5412670103092783,0.8294752577319588,0.32373505154639165,0.32082680412371134,0.5893453608247423,-1102.5391
63.0,1.0,409.0,0.09669690721649492,0.6166896907216496,0.49751443298969067,0.3030701030927836,0.4475329896907218,0.8159381443298969,0.26571134020618564,0.2607144329896907,0.44429793814432994,-1101.5625
63.0,1.0,410.0,0.23863814432989683,0.6286556701030929,0.47718556701030934,0.46744742268041234,0.4376958762886598,0.9486072164948455,0.3724958762886599,0.3876103092783503,0.5145587628865977,-1100.5859
63.0,1.0,411.0,0.5380670103092782,0.7562134020618556,0.6126896907216495,0.7573371134020618,0.657260824742268,1.1190309278350514,0.6587979381443301,0.5774268041237113,0.6228845360824742,-1099.6094
63.0,1.0,412.0,0.7883051546391755,1.016659793814433,0.8168958762886597,0.9403989690721649,0.8834474226804124,1.2226515463917527,0.8191505154639177,0.8480773195876288,0.8167628865979383,-1098.6328
63.0,1.0,413.0,0.6881164948453611,0.9859381443298967,0.7995082474226803,0.8253092783505155,0.8271010309278349,1.2470886597938144,0.6322041237113403,0.8716979381443298,0.7284226804123711,-1097.6563
63.0,1.0,414.0,0.441638144329897,0.6739628865979381,0.5856865979381443,0.722635051546392,0.532977319587629,1.0804979381443296,0.4162989690721649,0.5440855670103093,0.5463556701030927,-1096.6797
63.0,1.0,415.0,0.280679381443299,0.2772257731958763,0.30398350515463923,0.46934123711340214,0.20497525773195877,0.867681443298969,0.26543711340206194,0.39931134020618547,0.2994051546391754,-1095.7031
63.0,1.0,416.0,0.2020164948453608,0.03188659793814446,0.04594020618556696,0.213818556701031,0.057658762886597846,0.7353814432989688,0.1325154639175259,0.2577072164948455,0.16329381443298963,-1094.7266
63.0,1.0,417.0,0.0656309278350515,-0.06999484536082476,-0.18574948453608275,0.0010639175257732207,0.03419072164948452,0.43706288659793824,-0.09746494845360804,0.11105154639175258,-0.1378814432989693,-1093.75
63.0,1.0,418.0,-0.32889381443298976,-0.23923092783505137,-0.4107597938144329,-0.43616804123711345,-0.23521134020618573,0.16827319587628872,-0.44240618556701033,-0.12208247422680411,-0.4911896907216496,-1092.7734
63.0,1.0,419.0,-0.6528092783505156,-0.48116185567010317,-0.5849164948453609,-0.5752608247422679,-0.48818247422680416,0.041512371134020676,-0.6830484536082473,-0.4779443298969071,-0.774917525773196,-1091.7969
63.0,1.0,420.0,-0.920417525773196,-0.855561855670103,-0.9564072164948455,-0.6790536082474229,-0.7381360824742266,-0.18718865979381438,-1.047117525773196,-0.7316134020618558,-1.1744711340206184,-1090.8203
63.0,1.0,421.0,-0.9754226804123712,-0.9464855670103093,-1.1032113402061856,-0.7703876288659794,-0.76269793814433,-0.3300814432989692,-1.0770567010309278,-0.801881443298969,-1.304117525773196,-1089.8438
63.0,1.0,422.0,-0.907135051546392,-0.8083876288659794,-0.9266061855670101,-0.7547474226804125,-0.6298381443298969,-0.278441237113402,-0.9324226804123711,-0.6930185567010309,-1.1929917525773195,-1088.8672
63.0,1.0,423.0,-0.6888103092783506,-0.5985659793814433,-0.7126742268041238,-0.501520618556701,-0.5300268041237111,-0.08927010309278356,-0.7674721649484537,-0.5560319587628865,-1.0504041237113404,-1087.8906
63.0,1.0,424.0,-0.4404742268041238,-0.21371237113402056,-0.29358556701030925,-0.1946515463917526,-0.3188731958762886,0.22217835051546386,-0.5055010309278352,-0.39139381443298965,-0.7448958762886598,-1086.9141
63.0,1.0,425.0,-0.4227298969072167,0.03656907216494849,-0.05892989690721627,0.018981443298969086,-0.13632989690721653,0.4000082474226804,-0.41903608247422686,-0.28889381443298967,-0.6079092783505156,-1085.9375
63.0,1.0,426.0,-0.4341206185567011,0.07264020618556696,-0.1015773195876288,0.03802164948453612,-0.00842680412371124,0.36846907216494823,-0.38561649484536087,-0.2775391752577319,-0.6282824742268043,-1084.9609
63.0,1.0,427.0,-0.4454896907216496,-0.09243711340206186,-0.2408979381443297,-0.04913402061855672,-0.027232989690721597,0.21513608247422675,-0.42697731958762897,-0.18325773195876285,-0.603203092783505,-1083.9844
63.0,1.0,428.0,-0.4329773195876286,-0.14254329896907209,-0.28622474226804123,-0.10831546391752588,-0.16887216494845358,0.24907113402061842,-0.42455876288659805,-0.09317731958762872,-0.5938556701030928,-1083.0078
63.0,1.0,429.0,-0.4154731958762888,-0.007885567010309305,-0.22800206185566996,-0.09222783505154629,-0.10813608247422678,0.40854536082474213,-0.39378865979381433,-0.02406701030927838,-0.6069288659793813,-1082.0313
63.0,1.0,430.0,-0.22227216494845356,0.08064432989690729,-0.14834329896907214,-0.09889484536082478,0.030431958762886645,0.46197422680412364,-0.2653113402061854,-0.02129175257731962,-0.6364907216494845,-1081.0547
63.0,1.0,431.0,0.09652268041237103,0.11534020618556719,-0.06084432989690716,0.12667938144329896,0.28406494845360847,0.527439175257732,-0.11639896907216489,0.095680412371134,-0.45558350515463936,-1080.0781
63.0,1.0,432.0,-0.03794639175257735,0.013069072164948542,-0.2173721649484537,0.10633917525773194,0.23910824742268028,0.4829762886597938,-0.16750721649484532,0.03443711340206178,-0.5433443298969072,-1079.1016
63.0,1.0,433.0,-0.4011731958762888,-0.17126288659793812,-0.3815484536082474,-0.34822164948453604,0.005414432989690638,0.17655257731958762,-0.2273670103092784,-0.30994329896907225,-0.7596835051546392,-1078.125
63.0,1.0,434.0,-0.2643711340206185,-0.2037907216494845,-0.3806154639175257,-0.3529051546391754,0.03752783505154646,0.12254845360824754,-0.19762783505154638,-0.34172474226804134,-0.7938103092783505,-1077.1484
63.0,1.0,435.0,0.13066701030927824,-0.03807422680412373,-0.378357731958763,-0.1656020618556702,0.028389690721649576,0.21150618556701029,-0.2718979381443301,-0.275020618556701,-0.7981494845360824,-1076.1719
63.0,1.0,436.0,0.340521649484536,0.14986804123711356,-0.27264226804123715,-0.0623680412371134,0.07167938144329895,0.3129134020618557,-0.22508659793814437,-0.2111855670103094,-0.7675701030927834,-1075.1953
63.0,1.0,437.0,0.28349587628865996,0.16891443298969072,-0.1981958762886599,-0.030750515463917518,0.24268350515463924,0.3159649484536082,-0.1624783505154639,-0.2418175257731958,-0.8280329896907216,-1074.2188
63.0,1.0,438.0,0.07478865979381433,0.006875257731958718,-0.3354876288659794,-0.24274020618556702,0.1466030927835052,0.05368865979381443,-0.2256319587628866,-0.49472783505154644,-1.03620206185567,-1073.2422
63.0,1.0,439.0,-0.08520412371134017,-0.20382989690721653,-0.5299309278350515,-0.48316391752577326,-0.06592886597938144,-0.12338865979381462,-0.25056804123711346,-0.6975525773195878,-1.1479309278350514,-1072.2656
63.0,1.0,440.0,-0.11720412371134029,-0.38266185567010297,-0.6382144329896907,-0.632220618556701,-0.2727072164948453,-0.2683855670103093,-0.2814319587628867,-0.711060824742268,-1.1855979381443298,-1071.2891
63.0,1.0,441.0,-0.1735680412371135,-0.3940360824742269,-0.5365505154639176,-0.7517288659793814,-0.37152577319587626,-0.3488793814432989,-0.10885670103092791,-0.7280896907216495,-1.1051690721649483,-1070.3125
63.0,1.0,442.0,-0.1031824742268041,-0.22479072164948458,-0.4579824742268042,-0.7639659793814434,-0.2762164948453607,-0.3266835051546392,0.05259278350515465,-0.6726113402061856,-0.9139525773195877,-1069.3359
63.0,1.0,443.0,-0.2616237113402062,-0.15061340206185564,-0.3749628865979381,-0.6683432989690722,-0.2972474226804124,-0.31129278350515455,0.03523195876288653,-0.6214608247422682,-0.8575164948453607,-1068.3594
63.0,1.0,444.0,-0.3490422680412371,-0.08239896907216497,-0.20507113402061852,-0.500843298969072,-0.10842886597938142,-0.13556185567010323,0.2253628865979381,-0.4827556701030927,-0.6498567010309279,-1067.3828
63.0,1.0,445.0,-0.34353092783505174,0.1032680412371133,-0.06059690721649475,-0.37450206185567,0.05198350515463922,-0.04868041237113411,0.4185298969072166,-0.35803402061855666,-0.4707969072164948,-1066.4063
63.0,1.0,446.0,-0.25688350515463915,0.2455443298969072,-0.11544432989690732,-0.38866391752577306,0.013475257731958727,-0.04545567010309286,0.2705391752577318,-0.37288865979381447,-0.5469412371134018,-1065.4297
63.0,1.0,447.0,-0.3541701030927835,0.22027835051546393,-0.18538865979381447,-0.38951649484536094,0.02417216494845357,-0.007351546391752548,0.13704123711340213,-0.39348969072164935,-0.597078350515464,-1064.4531
63.0,1.0,448.0,-0.3611453608247422,0.13520618556701042,-0.07324432989690698,-0.28460515463917524,0.0785886597938142,0.13173917525773196,0.291679381443299,-0.31869278350515473,-0.45521958762886616,-1063.4766
63.0,1.0,449.0,-0.25089381443298986,0.2885577319587629,0.18754123711340207,-0.16006804123711335,0.22046701030927843,0.3406505154639175,0.4900907216494844,-0.10714226804123717,-0.3508082474226803,-1062.5
63.0,1.0,450.0,-0.31487422680412386,0.28095463917525776,0.17971030927835066,-0.205940206185567,0.10215670103092787,0.3544247422680412,0.3803391752577319,-0.037647422680412275,-0.40713505154639185,-1061.5234
63.0,1.0,451.0,-0.10938969072164953,0.22759999999999997,0.1797752577319587,-0.3624123711340206,-0.07865154639175263,0.20870824742268052,0.26066907216494845,-0.13255360824742274,-0.4022742268041235,-1060.5469
63.0,1.0,452.0,0.07888762886597957,0.37271134020618546,0.318962886597938,-0.36870618556701024,-0.003558762886598012,0.28779690721649487,0.39630000000000015,-0.10509999999999994,-0.2672123711340204,-1059.5703
63.0,1.0,453.0,-0.03844432989690713,0.4139876288659793,0.34381649484536103,-0.3834072164948454,0.0284453608247422,0.2795432989690722,0.41387938144329894,-0.042488659793814394,-0.21740412371134013,-1058.5938
63.0,1.0,454.0,-0.4342443298969071,0.13852371134020608,0.1732453608247422,-0.5545051546391753,-0.23749896907216497,-0.0026237113402061323,0.25680103092783507,-0.29249690721649474,-0.35622680412371127,-1057.6172
63.0,1.0,455.0,-0.9090567010309278,-0.15640309278350517,-0.03137113402061865,-0.7882958762886597,-0.4745608247422681,-0.16521958762886607,-0.018085567010309323,-0.5318958762886599,-0.4807628865979383,-1056.6406
63.0,1.0,456.0,-0.5661731958762888,-0.03723608247422677,0.08023092783505154,-0.7816309278350516,-0.3856041237113402,-0.04188762886597946,0.18168659793814437,-0.3630474226804124,-0.3042360824742268,-1055.6641
63.0,1.0,457.0,-0.3064649484536082,0.015047422680412453,0.17361134020618552,-0.7999350515463918,-0.41041649484536086,-0.05506907216494847,0.314603092783505,-0.3539463917525773,-0.21878659793814442,-1054.6875
63.0,1.0,458.0,-0.6786247422680413,-0.18754845360824735,-0.06500824742268044,-1.0588721649484536,-0.6032144329896907,-0.24580515463917518,0.10008556701030943,-0.529174226804124,-0.38795051546391746,-1053.7109
63.0,1.0,459.0,-0.6171670103092786,-0.19090000000000018,-0.011089690721649443,-1.018041237113402,-0.48896082474226815,-0.1723072164948455,-0.023315463917525786,-0.38716701030927847,-0.2782567010309278,-1052.7344
63.0,1.0,460.0,-0.3791298969072165,0.0238536082474227,0.13975670103092785,-0.8927432989690722,-0.23482164948453607,-0.10019896907216491,0.041202061855670186,-0.14359896907216507,-0.012569072164948462,-1051.7578
63.0,1.0,461.0,-0.3735041237113403,0.004076288659793938,0.09235979381443295,-0.8872927835051547,-0.21894123711340208,-0.09670618556701034,0.02375876288659787,-0.16148969072164954,0.023281443298969057,-1050.7813
63.0,1.0,462.0,-0.11429587628865957,0.037560824742268066,0.19527216494845376,-0.6210309278350516,-0.12495463917525762,0.0951061855670103,0.19593505154639185,-0.013778350515463762,0.14384123711340208,-1049.8047
63.0,1.0,463.0,-0.249559793814433,-0.05170721649484541,0.12406701030927829,-0.5625329896907217,-0.1462896907216495,0.0167164948453608,0.13811443298969073,-0.043989690721649516,0.02160721649484542,-1048.8281
63.0,1.0,464.0,-0.28160618556701045,-0.05908556701030932,0.1335567010309279,-0.6404597938144331,-0.09047525773195876,0.006405154639175273,0.12057835051546388,-0.07671855670103099,-0.008793814432989632,-1047.8516
63.0,1.0,465.0,-0.08304948453608234,0.07658041237113407,0.26021546391752576,-0.5653515463917524,0.028269072164948388,0.1096948453608248,0.19731855670103096,0.08713298969072167,0.2555484536082474,-1046.875
63.0,1.0,466.0,-0.03597628865979377,0.01787628865979383,0.1847030927835052,-0.5844391752577321,0.05409381443298985,-0.0008103092783505498,0.2337577319587629,0.054465979381443194,0.31849793814433003,-1045.8984
63.0,1.0,467.0,-0.19176288659793836,-0.1893649484536083,-0.05489484536082475,-0.7785257731958763,-0.07993505154639179,-0.18871134020618557,0.05394226804123704,-0.00044123711340205904,0.10001237113402059,-1044.9219
63.0,1.0,468.0,-0.30660000000000004,-0.15737113402061856,-0.017131958762886777,-0.7912670103092783,-0.05689896907216507,-0.19975257731958765,0.017519587628866098,0.03194742268041234,0.13002474226804125,-1043.9453
63.0,1.0,469.0,-0.09615567010309277,-0.0752134020618556,0.08500618556701034,-0.783617525773196,-0.10961134020618561,-0.14183298969072156,-0.09800206185566986,0.006964948453608241,0.2268515463917523,-1042.9688
63.0,1.0,470.0,0.2591556701030928,0.11506185567010313,0.3288484536082473,-0.6419041237113402,-0.018823711340206137,0.042475257731958774,0.09052783505154635,0.14862268041237106,0.38933711340206195,-1041.9922
63.0,1.0,471.0,0.2234030927835052,0.012871134020618437,0.21828865979381443,-0.656639175257732,-0.07594639175257732,0.014354639175257753,0.17603711340206193,0.07681649484536086,0.26897422680412353,-1041.0156
63.0,1.0,472.0,-0.03580103092783497,-0.22921649484536089,-0.09247731958762893,-0.8323432989690722,-0.25119793814432984,-0.26997938144329897,-0.09273298969072162,-0.28618453608247424,-0.031018556701030937,-1040.0391
63.0,1.0,473.0,-0.10038041237113389,-0.34620412371134035,-0.2853360824742271,-0.9997319587628868,-0.4130474226804124,-0.5249164948453608,-0.37238247422680426,-0.5599752577319587,-0.24774742268041244,-1039.0625
63.0,1.0,474.0,-0.22582886597938137,-0.46108247422680415,-0.39509793814433,-1.1393134020618556,-0.5330422680412371,-0.5365443298969073,-0.47916391752577314,-0.5693587628865979,-0.3322711340206185,-1038.0859
63.0,1.0,475.0,-0.1519793814432991,-0.35100309278350517,-0.3969896907216494,-1.087158762886598,-0.3920948453608246,-0.44984742268041233,-0.34101546391752585,-0.45021030927835054,-0.245441237113402,-1037.1094
63.0,1.0,476.0,0.20572680412371136,-0.20179690721649482,-0.257721649484536,-0.9383010309278351,-0.19080000000000003,-0.29499793814432995,-0.243720618556701,-0.201559793814433,-0.02894226804123698,-1036.1328
63.0,1.0,477.0,0.22209587628865962,-0.2098917525773196,-0.2627979381443297,-0.9547175257731959,-0.1461020618556701,-0.3087618556701031,-0.17195257731958774,-0.1447288659793813,0.030192783505154776,-1035.1563
63.0,1.0,478.0,0.10035567010309285,-0.31948762886597937,-0.32281855670103105,-0.9374659793814432,-0.18638659793814433,-0.28522371134020613,-0.24428453608247436,-0.2015288659793814,-0.043934020618556606,-1034.1797
63.0,1.0,479.0,0.011661855670103017,-0.2850824742268041,-0.20517216494845367,-0.8261917525773197,-0.030550515463917544,-0.16399793814432986,-0.2254278350515462,-0.04233298969072166,0.18719587628865977,-1033.2031
63.0,1.0,480.0,0.16794639175257722,-0.08973711340206184,0.04171237113402053,-0.6324175257731958,0.21516391752577319,0.04135360824742264,-0.040499999999999925,0.14899175257731956,0.40283402061855655,-1032.2266
63.0,1.0,481.0,0.36379484536082474,0.06979896907216504,0.24501134020618542,-0.39538865979381443,0.5555690721649484,0.2685680412371135,0.10703814432989679,0.34767938144329896,0.5079804123711341,-1031.25
63.0,1.0,482.0,0.5022257731958764,0.1993577319587628,0.2366453608247423,-0.30962989690721654,0.6102577319587628,0.38956391752577313,0.17642989690721614,0.3820670103092783,0.523375257731959,-1030.2734
63.0,1.0,483.0,0.43550103092783504,0.1710072164948454,0.22641546391752598,-0.3325298969072165,0.5307216494845362,0.3947,0.2124309278350517,0.3835958762886598,0.45690309278350516,-1029.2969
63.0,1.0,484.0,0.22252989690721653,0.13638350515463912,0.254179381443299,-0.4697865979381443,0.5648247422680414,0.43384742268041243,0.2466855670103094,0.43234020618556707,0.43287216494845354,-1028.3203
63.0,1.0,485.0,0.13755051546391758,0.12286907216494844,0.255180412371134,-0.3848072164948454,0.5239886597938143,0.46244432989690715,0.20541237113402053,0.49308144329896914,0.5380154639175257,-1027.3438
63.0,1.0,486.0,0.05330206185567015,0.02008041237113401,0.2172762886597939,-0.37311752577319596,0.322682474226804,0.3590865979381442,0.24039587628865977,0.3905989690721649,0.5554690721649483,-1026.3672
63.0,1.0,487.0,-0.07991340206185556,-0.1350268041237112,0.050491752577319464,-0.3611494845360825,0.12328865979381434,0.17463505154639178,0.1487000000000002,0.2024,0.3745835051546392,-1025.3906
63.0,1.0,488.0,0.08614432989690725,-0.2744608247422681,-0.22033298969072176,-0.4168494845360825,0.003125773195876265,0.022829896907216405,-0.1018391752577319,-0.0118061855670103,0.20595463917525783,-1024.4141
63.0,1.0,489.0,0.22287319587628882,-0.34513298969072165,-0.2906185567010308,-0.48312989690721647,0.013753608247422729,-0.004706185567010283,-0.03791752577319594,-0.11230309278350507,0.10930206185567007,-1023.4375
63.0,1.0,490.0,0.22414742268041238,-0.14717422680412368,-0.07893608247422669,-0.3559773195876289,0.01043402061855675,0.281860824742268,0.24311855670103066,0.07258969072164947,0.29405051546391753,-1022.4609
63.0,1.0,491.0,0.45112371134020596,0.08679999999999992,0.12135773195876301,-0.14201237113402065,0.21889381443298997,0.5238886597938144,0.4595402061855672,0.2807793814432989,0.5722639175257732,-1021.4844
63.0,1.0,492.0,0.7913773195876288,0.22683711340206186,0.27790515463917537,0.08058556701030921,0.4084309278350515,0.6214742268041237,0.6887896907216496,0.4074175257731958,0.6967804123711339,-1020.5078
63.0,1.0,493.0,0.853198969072165,0.2853752577319587,0.3551773195876288,0.11740309278350516,0.4242577319587629,0.5940917525773197,0.7332567010309279,0.42840927835051534,0.6688113402061855,-1019.5313
63.0,1.0,494.0,0.6674422680412371,0.31383608247422684,0.4377051546391753,0.12946907216494838,0.41137422680412367,0.5634969072164948,0.7629969072164947,0.41532886597938146,0.7472752577319587,-1018.5547
63.0,1.0,495.0,0.557262886597938,0.14490412371134007,0.3512134020618557,0.10597525773195876,0.3074030927835052,0.4777886597938145,0.9002278350515464,0.34335154639175247,0.8414896907216495,-1017.5781
63.0,1.0,496.0,0.43228659793814445,-0.050400000000000125,0.1331020618556701,-0.06238453608247413,0.233781443298969,0.2653422680412371,0.7815103092783502,0.20904432989690705,0.7095948453608246,-1016.6016
63.0,1.0,497.0,0.2585680412371133,-0.22932577319587627,-0.05877216494845342,-0.15980515463917513,0.17146597938144334,0.16728659793814438,0.5249958762886597,-0.00015463917525776987,0.5075690721649483,-1015.625
63.0,1.0,498.0,0.16588247422680424,-0.36251546391752587,-0.1961731958762885,-0.2477484536082474,0.03300206185567018,0.048698969072164935,0.34947628865979374,-0.30826701030927833,0.27215567010309283,-1014.6484
63.0,1.0,499.0,-0.037265979381443284,-0.46172164948453615,-0.26474536082474237,-0.3788773195876289,-0.011086597938144533,-0.003022680412371161,0.30662680412371157,-0.4008453608247421,0.24883402061855653,-1013.6719
63.0,1.0,500.0,-0.004778350515464044,-0.46478969072164955,-0.19253298969072158,-0.29439999999999994,0.17105670103092813,0.05111546391752566,0.4954103092783506,-0.33344226804123717,0.45574020618556704,-1012.6953
63.0,1.0,501.0,0.10631340206185574,-0.4821237113402061,-0.3094113402061856,-0.46121443298969067,0.06030927835051543,-0.03457216494845371,0.4548072164948452,-0.3219680412371135,0.39727835051546395,-1011.7188
63.0,1.0,502.0,0.012871134020618446,-0.8422463917525773,-0.7250123711340207,-0.7034948453608246,-0.3074515463917527,-0.3160824742268042,0.01926391752577313,-0.588217525773196,0.10970927835051554,-1010.7422
63.0,1.0,503.0,-0.16697938144329894,-1.235937113402062,-1.0135484536082475,-0.9315855670103093,-0.6443010309278351,-0.6084567010309277,-0.2592907216494846,-0.8959618556701032,-0.13236288659793827,-1009.7656
63.0,1.0,504.0,-0.1649288659793814,-1.395055670103093,-1.076503092783505,-1.1238876288659794,-0.8490639175257734,-0.7285206185567011,-0.3106268041237114,-0.9604020618556701,-0.17962268041237114,-1008.7891
63.0,1.0,505.0,-0.04735463917525769,-1.388619587628866,-1.0936164948453608,-1.0201402061855671,-0.8333546391752578,-0.7586680412371135,-0.2827113402061856,-0.8648020618556701,-0.1472536082474228,-1007.8125
63.0,1.0,506.0,-0.004577319587628854,-1.2441,-1.0309731958762887,-0.8993783505154638,-0.8243628865979381,-0.6308927835051545,-0.16924845360824745,-0.7518309278350517,-0.17264948453608248,-1006.8359
63.0,1.0,507.0,0.16283608247422673,-0.8789412371134019,-0.8944175257731959,-0.7377670103092784,-0.6054999999999998,-0.39466804123711335,0.056865979381443284,-0.5735020618556701,-0.11708969072164943,-1005.8594
63.0,1.0,508.0,0.5425175257731958,-0.7229216494845361,-0.9019484536082475,-0.6534618556701032,-0.5041515463917525,-0.3253701030927835,0.04915670103092784,-0.5576649484536083,-0.1084237113402061,-1004.8828
63.0,1.0,509.0,0.5164319587628867,-0.7764659793814435,-0.8308845360824741,-0.6922731958762888,-0.5241072164948456,-0.3282690721649484,0.015285567010309219,-0.6204000000000001,-0.17259278350515458,-1003.9063
63.0,1.0,510.0,0.3540103092783504,-0.8728309278350519,-0.7366288659793815,-0.6693515463917525,-0.49581958762886585,-0.2613556701030929,0.07748969072164978,-0.5417072164948454,-0.18914226804123702,-1002.9297
63.0,1.0,511.0,0.34238247422680423,-0.7652350515463918,-0.569879381443299,-0.5756690721649484,-0.539398969072165,-0.0714917525773196,0.12882268041237113,-0.30178144329896905,-0.007047422680412428,-1001.9531
63.0,1.0,512.0,-0.07686494845360821,-0.9651515463917527,-0.7734546391752578,-0.8848577319587628,-0.826961855670103,-0.28476288659793797,-0.1575567010309279,-0.42809690721649474,-0.2770752577319588,-1000.9766
63.0,1.0,513.0,-0.3608515463917526,-1.18209793814433,-1.0291948453608246,-1.1528237113402062,-1.0085639175257732,-0.5950412371134022,-0.5504134020618555,-0.7869659793814433,-0.685494845360825,-1000.0
63.0,1.0,514.0,-0.2385340206185566,-1.1213381443298966,-0.9879360824742267,-1.1025845360824742,-0.9604979381443299,-0.6380319587628865,-0.5836226804123712,-0.8314639175257732,-0.58210206185567,-999.0234
63.0,1.0,515.0,0.09252886597938148,-0.7593144329896907,-0.5371896907216495,-0.8267721649484536,-0.5798907216494847,-0.2847855670103093,-0.3573216494845362,-0.520246391752577,-0.21682474226804135,-998.0469
63.0,1.0,516.0,0.3196,-0.33015257731958764,-0.10830412371134013,-0.3650907216494844,-0.11269587628865964,0.19966185567010306,0.033594845360824716,-0.0860587628865979,0.14599999999999996,-997.0703
63.0,1.0,517.0,0.5289164948453609,-0.13496391752577327,0.10847010309278356,-0.14514123711340204,0.20202886597938133,0.4993268041237113,0.36239999999999983,0.19897525773195873,0.4656855670103094,-996.0938
63.0,1.0,518.0,0.698056701030928,-0.11981752577319595,0.20627938144329885,-0.2125206185567012,0.22801752577319556,0.44109793814432985,0.4616639175257734,0.18582371134020595,0.45787835051546394,-995.1172
63.0,1.0,519.0,0.5050587628865978,-0.34462577319587634,0.08588041237113414,-0.3650773195876289,0.1740824742268041,0.15287731958762893,0.17085360824742274,-0.011434020618556704,0.24908144329896897,-994.1406
63.0,1.0,520.0,0.5962773195876289,-0.36575360824742276,0.009126804123711148,-0.3104639175257731,0.20504948453608246,0.09661443298969058,0.054959793814433056,-0.10689072164948446,0.14187525773195891,-993.1641
63.0,1.0,521.0,0.6800092783505154,-0.29425670103092777,0.055650515463917395,-0.14792371134020624,0.2182030927835052,0.14576082474226795,0.07547525773195884,-0.24513711340206198,0.09917216494845363,-992.1875
63.0,1.0,522.0,0.6466711340206186,-0.3808226804123711,-0.0938443298969073,-0.24712783505154653,0.09332474226804124,-0.04285567010309269,-0.03163814432989697,-0.44833608247422685,-0.14698969072164975,-991.2109
63.0,1.0,523.0,0.5033041237113403,-0.6321288659793814,-0.3284917525773196,-0.6309144329896906,-0.23105154639175257,-0.2874835051546391,-0.3182948453608248,-0.6389938144329896,-0.30754742268041246,-990.2344
63.0,1.0,524.0,0.7062701030927834,-0.4115731958762886,-0.12974329896907216,-0.5486804123711341,-0.21812474226804113,-0.11747113402061853,-0.29308865979381427,-0.5145123711340205,-0.11737525773195881,-989.2578
63.0,1.0,525.0,0.9949618556701033,-0.04172371134020613,0.14867216494845364,-0.19597010309278343,-0.014922680412371242,0.1179164948453609,-0.20628969072164938,-0.3459494845360824,0.07909587628865976,-988.2813
63.0,1.0,526.0,1.3187309278350516,0.13156494845360817,0.3300721649484537,0.05248762886597928,0.24071752577319583,0.39210618556701027,-0.16142577319587625,-0.19410206185567025,0.15018144329896888,-987.3047
63.0,1.0,527.0,1.6399670103092783,0.3533927835051546,0.49415360824742266,0.4271659793814432,0.4111175257731959,0.7312134020618557,0.04943402061855675,0.010186597938144323,0.28047319587628894,-986.3281
63.0,1.0,528.0,1.6216247422680412,0.5123010309278352,0.6290257731958763,0.6156659793814434,0.5698402061855669,0.9308463917525773,0.279358762886598,0.10968247422680404,0.38084639175257745,-985.3516
63.0,1.0,529.0,1.360617525773196,0.5625804123711342,0.6197989690721651,0.6062020618556702,0.6681123711340208,0.8535536082474228,0.4322329896907215,0.13591237113402047,0.5165360824742268,-984.375
63.0,1.0,530.0,1.1319123711340207,0.38661340206185574,0.4712989690721649,0.5120938144329896,0.6320525773195877,0.5708010309278351,0.48890103092783505,-0.004103092783505202,0.51480206185567,-983.3984
63.0,1.0,531.0,0.9660762886597937,0.24605463917525758,0.3776505154639175,0.4305505154639176,0.6590659793814431,0.4448690721649482,0.5019567010309278,-0.08707731958762895,0.48805773195876295,-982.4219
63.0,1.0,532.0,1.1024340206185568,0.2788453608247423,0.36536288659793814,0.47108144329896895,0.6767391752577319,0.5035969072164949,0.5876989690721649,-0.0330000000000001,0.5108474226804124,-981.4453
63.0,1.0,533.0,1.242515463917526,0.36578969072164946,0.4089103092783504,0.5571824742268043,0.7707752577319587,0.5014226804123711,0.8231917525773197,-0.05727422680412375,0.6669525773195875,-980.4688
63.0,1.0,534.0,1.1895113402061857,0.2583494845360825,0.4064371134020619,0.46327938144329894,0.7915268041237112,0.43175051546391746,0.7845525773195877,-0.1226226804123712,0.6017422680412372,-979.4922
63.0,1.0,535.0,0.998974226804124,0.07077010309278335,0.24465463917525776,0.2684670103092782,0.6823628865979381,0.3543525773195875,0.5891092783505155,-0.23573608247422687,0.3401814432989688,-978.5156
63.0,1.0,536.0,1.1091082474226803,0.13807216494845387,0.27275773195876285,0.2868237113402063,0.8195628865979381,0.2872752577319588,0.6668432989690722,-0.3792814432989692,0.24496082474226807,-977.5391
63.0,1.0,537.0,1.1600546391752578,0.042706185567010294,0.17566597938144335,0.24221237113402053,0.7853020618556703,0.10679484536082486,0.6067340206185567,-0.597519587628866,0.11204123711340196,-976.5625
63.0,1.0,538.0,1.1647247422680411,-0.17411030927835056,0.010143298969072076,0.18573917525773212,0.6847690721649483,-0.010202061855669992,0.6285164948453609,-0.6311144329896906,0.10944020618556678,-975.5859
63.0,1.0,539.0,1.08949175257732,-0.23991030927835064,-0.0738989690721651,0.12885670103092783,0.5986082474226805,-0.09161958762886588,0.5926804123711341,-0.7179154639175259,-0.09448865979381453,-974.6094
63.0,1.0,540.0,1.026647422680412,-0.3797783505154639,-0.12995257731958773,0.05676804123711327,0.5371432989690721,-0.20879999999999996,0.5366587628865979,-0.8241927835051547,-0.3321041237113403,-973.6328
63.0,1.0,541.0,1.0936742268041237,-0.46851546391752574,-0.08098556701030929,0.10972680412371125,0.6655185567010308,-0.23924948453608247,0.6372999999999999,-0.869258762886598,-0.3769845360824742,-972.6563
63.0,1.0,542.0,0.9398783505154639,-0.5396556701030928,-0.20716907216494837,-0.028848453608247424,0.5608845360824743,-0.41826494845360823,0.33746597938144324,-1.0801958762886599,-0.5786515463917526,-971.6797
63.0,1.0,543.0,0.8818711340206185,-0.5519948453608247,-0.20105154639175263,-0.16476185567010324,0.5739278350515464,-0.4368515463917525,0.36385257731958764,-1.1967,-0.6699185567010308,-970.7031
63.0,1.0,544.0,1.0181907216494843,-0.457720618556701,-0.1233845360824743,-0.07272886597938147,0.7056783505154639,-0.2701773195876288,0.5574762886597938,-1.1205474226804124,-0.6504432989690722,-969.7266
63.0,1.0,545.0,1.3890391752577322,-0.17904948453608238,0.006712371134020688,0.16377319587628864,0.8096329896907215,-0.10756804123711347,0.6974865979381443,-0.8747443298969072,-0.5481443298969072,-968.75
63.0,1.0,546.0,1.6480567010309277,0.17701958762886602,0.2349329896907217,0.46628659793814436,1.0479865979381444,0.06451443298969066,0.7984742268041237,-0.579140206185567,-0.3599639175257731,-967.7734
63.0,1.0,547.0,1.638905154639175,0.3300278350515465,0.26273092783505153,0.4972649484536082,1.1675597938144329,0.08657628865979372,0.584419587628866,-0.6275092783505155,-0.3942525773195877,-966.7969
63.0,1.0,548.0,1.644821649484536,0.42620412371134,0.35589690721649475,0.5593680412371134,1.218898969072165,0.15072061855670094,0.7063103092783506,-0.6530917525773197,-0.45007113402061855,-965.8203
63.0,1.0,549.0,1.5335845360824742,0.4028917525773196,0.4147350515463916,0.5870865979381443,1.2756721649484535,0.182878350515464,0.8579824742268041,-0.6347030927835052,-0.47472680412371115,-964.8438
63.0,1.0,550.0,1.252024742268041,0.20932783505154637,0.2510144329896906,0.36261958762886587,1.1304474226804124,0.04338556701030937,0.6902154639175259,-0.790838144329897,-0.5267453608247422,-963.8672
63.0,1.0,551.0,0.8037701030927836,-0.21486391752577316,-0.041620618556700816,0.03607938144329882,0.740360824742268,-0.3173494845360824,0.33214845360824735,-0.9468731958762886,-0.7457659793814433,-962.8906
63.0,1.0,552.0,0.36422061855670146,-0.5735164948453608,-0.36973402061855687,-0.3063865979381441,0.38851958762886596,-0.7197948453608248,0.06728453608247424,-1.2549876288659794,-0.9051752577319587,-961.9141
63.0,1.0,553.0,0.1205597938144329,-0.7764164948453608,-0.5878680412371133,-0.639842268041237,0.1839505154639175,-0.9528061855670104,-0.1660226804123712,-1.5176154639175259,-1.207234020618557,-960.9375
63.0,1.0,554.0,0.19401443298969068,-0.8282731958762887,-0.5306092783505153,-0.6064814432989691,0.11822164948453606,-0.8168257731958763,-0.06719278350515469,-1.4708340206185566,-1.1621876288659794,-959.9609
63.0,1.0,555.0,0.03902164948453592,-0.8178103092783504,-0.5383711340206186,-0.6662927835051545,0.027809278350515314,-0.8053989690721651,-0.050411340206185574,-1.4493731958762888,-1.075584536082474,-958.9844
63.0,1.0,556.0,-0.24546597938144318,-0.9085752577319588,-0.6249886597938145,-0.7244030927835051,-0.1009041237113403,-0.889284536082474,-0.15826701030927828,-1.4619453608247421,-1.1966505154639175,-958.0078
63.0,1.0,557.0,-0.45743608247422674,-1.0393855670103092,-0.6599989690721652,-0.8107515463917527,-0.08150103092783482,-1.0004659793814434,-0.26077113402061847,-1.5024721649484536,-1.2834659793814434,-957.0313
63.0,1.0,558.0,-0.536321649484536,-1.0571855670103094,-0.6625350515463916,-0.8470103092783505,-0.1150835051546392,-1.024641237113402,-0.3295082474226805,-1.559738144329897,-1.3269618556701033,-956.0547
63.0,1.0,559.0,-0.7051463917525774,-1.112319587628866,-0.7713701030927835,-0.8971628865979381,-0.33174845360824734,-1.1263360824742268,-0.5098989690721649,-1.6953288659793815,-1.4968319587628869,-955.0781
63.0,1.0,560.0,-0.9255701030927834,-1.310544329896907,-0.9230164948453605,-0.997722680412371,-0.5655309278350513,-1.2728969072164948,-0.7040432989690723,-1.8054907216494849,-1.6274680412371132,-954.1016
63.0,1.0,561.0,-1.2096680412371135,-1.6464731958762886,-1.148719587628866,-1.1661670103092783,-0.7941505154639174,-1.3310690721649483,-0.862276288659794,-1.7792865979381443,-1.6703659793814432,-953.125
63.0,1.0,562.0,-1.362922680412371,-1.9626144329896908,-1.479043298969072,-1.431398969072165,-1.0283989690721649,-1.5095,-1.1406226804123711,-1.9707350515463915,-1.810521649484536,-952.1484
63.0,1.0,563.0,-1.294779381443299,-2.010583505154639,-1.5806082474226806,-1.546096907216495,-1.1565721649484537,-1.6147886597938144,-1.2300484536082472,-2.0786525773195876,-1.8148226804123708,-951.1719
63.0,1.0,564.0,-1.2767597938144328,-2.055940206185567,-1.6506010309278352,-1.6292731958762887,-1.252717525773196,-1.6857670103092783,-1.3399865979381445,-2.1415381443298966,-1.7690061855670105,-950.1953
63.0,1.0,565.0,-1.4653731958762886,-2.2112288659793817,-1.8323092783505155,-1.879622680412371,-1.3929814432989691,-1.6996525773195876,-1.5748639175257735,-2.1677082474226803,-1.7970938144329898,-949.2188
63.0,1.0,566.0,-1.4751670103092782,-2.165336082474227,-1.8401567010309277,-1.733277319587629,-1.3363958762886599,-1.65579793814433,-1.6772721649484537,-2.1118886597938142,-1.7858948453608248,-948.2422
63.0,1.0,567.0,-1.4434659793814435,-2.0704391752577322,-1.6561340206185569,-1.6300525773195877,-1.3035123711340204,-1.4595103092783503,-1.602942268041237,-2.0108061855670103,-1.745642268041237,-947.2656
63.0,1.0,568.0,-1.1837773195876287,-1.9534824742268038,-1.46879587628866,-1.3493721649484538,-1.2710896907216496,-1.1611082474226804,-1.4192907216494846,-1.6506515463917526,-1.512056701030928,-946.2891
63.0,1.0,569.0,-0.7662752577319589,-1.678760824742268,-1.2417247422680413,-1.011677319587629,-1.0607670103092783,-0.9063886597938144,-1.1604432989690723,-1.351643298969072,-1.2174226804123711,-945.3125
63.0,1.0,570.0,-1.1374381443298969,-1.8118278350515464,-1.3771092783505154,-1.2446422680412372,-1.257518556701031,-1.090578350515464,-1.492841237113402,-1.6043041237113402,-1.47149587628866,-944.3359
63.0,1.0,571.0,-1.7846422680412373,-2.3805391752577316,-1.884679381443299,-1.7895680412371133,-1.7923938144329894,-1.5518402061855672,-2.160315463917526,-2.087855670103093,-2.0877,-943.3594
63.0,1.0,572.0,-2.0350597938144332,-2.547740206185567,-2.04600412371134,-2.0059525773195874,-1.9461886597938143,-1.7227731958762889,-2.3638824742268043,-2.217461855670103,-2.370716494845361,-942.3828
63.0,1.0,573.0,-2.120142268041237,-2.508978350515464,-2.0530948453608246,-1.9891505154639177,-1.9762350515463916,-1.7724030927835053,-2.3339721649484537,-2.206457731958763,-2.4225041237113407,-941.4063
63.0,1.0,574.0,-2.3276257731958765,-2.7530649484536083,-2.3380659793814433,-2.0197237113402062,-2.178878350515464,-1.7869979381443297,-2.4999948453608245,-2.2925659793814432,-2.596057731958763,-940.4297
63.0,1.0,575.0,-2.5260793814432994,-2.9121412371134023,-2.5538484536082473,-2.0744680412371133,-2.38080412371134,-1.9243896907216493,-2.7769556701030926,-2.3697360824742266,-2.6758268041237114,-939.4531
63.0,1.0,576.0,-2.4378288659793816,-2.850258762886598,-2.522682474226804,-2.106725773195876,-2.512528865979381,-1.8184072164948455,-2.724660824742268,-2.2525226804123712,-2.569864948453608,-938.4766
63.0,1.0,577.0,-2.2466505154639176,-2.8077319587628864,-2.4906072164948454,-2.0828505154639174,-2.5768,-1.7246896907216493,-2.7698680412371135,-2.3224731958762885,-2.5222257731958764,-937.5
63.0,1.0,578.0,-2.385672164948453,-2.8195608247422683,-2.4660103092783507,-2.152282474226804,-2.529943298969072,-1.7869041237113403,-2.9451463917525778,-2.4181835051546394,-2.4918319587628863,-936.5234
63.0,1.0,579.0,-2.1666505154639175,-2.4989443298969074,-2.2122907216494845,-1.9123443298969072,-2.3856061855670103,-1.6261422680412372,-2.9082639175257734,-2.2824319587628867,-2.4499525773195874,-935.5469
63.0,1.0,580.0,-1.8729938144329896,-2.3445154639175256,-2.2375494845360824,-1.9031494845360823,-2.4552752577319588,-1.574238144329897,-3.017245360824742,-2.3080762886597936,-2.633239175257732,-934.5703
63.0,1.0,581.0,-2.21379381443299,-2.742538144329897,-2.566662886597938,-2.254115463917526,-2.75270412371134,-1.8736711340206187,-3.2851690721649485,-2.546480412371134,-2.9023237113402063,-933.5938
63.0,1.0,582.0,-2.4603577319587626,-2.8898494845360827,-2.6146381443298967,-2.2783639175257733,-2.7894587628865977,-1.945496907216495,-3.390856701030928,-2.5757886597938144,-2.987982474226804,-932.6172
63.0,1.0,583.0,-2.3193237113402065,-2.791021649484536,-2.5791721649484534,-2.146576288659794,-2.6307587628865976,-1.8255835051546392,-3.3491659793814432,-2.50589793814433,-2.912367010309278,-931.6406
63.0,1.0,584.0,-2.1191958762886602,-2.783249484536082,-2.579526804123711,-2.223276288659794,-2.5656432989690723,-1.8361742268041237,-3.16510824742268,-2.5345092783505154,-2.8913855670103095,-930.6641
63.0,1.0,585.0,-2.0602618556701033,-2.717277319587629,-2.4627762886597937,-2.2505061855670103,-2.499660824742268,-1.7091123711340206,-3.0610639175257734,-2.4455896907216497,-2.8429072164948455,-929.6875
63.0,1.0,586.0,-2.3158092783505153,-2.877378350515464,-2.5313948453608246,-2.2876494845360824,-2.626476288659794,-1.847142268041237,-3.213723711340206,-2.525342268041237,-3.0034927835051546,-928.7109
63.0,1.0,587.0,-2.6378505154639176,-3.013579381443299,-2.654220618556701,-2.3716041237113403,-2.8541103092783504,-1.9810144329896908,-3.432182474226804,-2.7071443298969076,-3.150182474226804,-927.7344
63.0,1.0,588.0,-2.6865422680412374,-3.0604474226804124,-2.7548154639175255,-2.390438144329897,-2.921043298969072,-2.072758762886598,-3.7242288659793816,-2.934863917525773,-3.3317402061855668,-926.7578
63.0,1.0,589.0,-2.647496907216495,-3.1920783505154637,-2.974784536082474,-2.5500505154639175,-3.0242989690721647,-2.3000340206185568,-4.041358762886598,-3.1277927835051544,-3.689396907216495,-925.7813
63.0,1.0,590.0,-2.6766072164948453,-3.2978432989690725,-3.190077319587629,-2.70919381443299,-3.2296072164948457,-2.504605154639175,-4.253575257731958,-3.267684536082474,-4.006741237113402,-924.8047
63.0,1.0,591.0,-2.5023690721649485,-3.2963731958762885,-3.2398680412371132,-2.8239309278350513,-3.227192783505154,-2.500556701030928,-4.244864948453608,-3.3239690721649486,-4.076467010309279,-923.8281
63.0,1.0,592.0,-2.1822041237113403,-3.270118556701031,-3.175476288659794,-2.9323907216494844,-3.1979525773195876,-2.5035505154639175,-4.248735051546392,-3.470032989690721,-4.023427835051546,-922.8516
63.0,1.0,593.0,-2.0799237113402063,-3.4139577319587633,-3.2648762886597935,-3.0090484536082474,-3.2563237113402064,-2.570430927835052,-4.1515989690721655,-3.4730474226804127,-4.062883505154639,-921.875
63.0,1.0,594.0,-2.129241237113402,-3.4491010309278347,-3.256158762886598,-2.8873319587628865,-3.28309793814433,-2.4201536082474226,-4.107862886597938,-3.3122659793814435,-3.9459268041237117,-920.8984
63.0,1.0,595.0,-2.1947216494845363,-3.487440206185567,-3.2615721649484537,-2.841570103092784,-3.2948505154639176,-2.3504247422680415,-4.239114432989691,-3.2921731958762885,-3.8597278350515465,-919.9219
63.0,1.0,596.0,-1.9386185567010308,-3.2398103092783503,-3.0492762886597933,-2.7149278350515464,-2.995539175257732,-2.1582463917525776,-4.086413402061855,-2.9382154639175253,-3.5498917525773193,-918.9453
63.0,1.0,597.0,-1.7241422680412373,-2.9791711340206186,-2.77721030927835,-2.537277319587629,-2.6352680412371132,-1.993558762886598,-3.65730824742268,-2.6536082474226808,-3.2482226804123715,-917.9688
63.0,1.0,598.0,-1.7629463917525772,-3.0719020618556705,-2.8824443298969067,-2.673632989690722,-2.8785288659793817,-2.114481443298969,-3.6986000000000003,-2.649264948453608,-3.2964319587628865,-916.9922
63.0,1.0,599.0,-1.887201030927835,-3.2649773195876293,-3.117532989690722,-2.815252577319588,-3.1621175257731955,-2.18249793814433,-3.855976288659794,-2.6632,-3.3640628865979383,-916.0156
63.0,1.0,600.0,-1.8847845360824742,-3.2381051546391753,-3.1219773195876286,-2.683037113402062,-2.9540340206185567,-2.109021649484536,-3.780181443298969,-2.725588659793815,-3.4025443298969074,-915.0391
63.0,1.0,601.0,-1.7679958762886598,-3.029555670103093,-2.9784556701030924,-2.4740711340206185,-2.6976907216494843,-1.8885381443298968,-3.5816175257731957,-2.5853,-3.3066814432989693,-914.0625
63.0,1.0,602.0,-1.6573515463917528,-2.8051432989690723,-2.7187453608247423,-2.2035659793814433,-2.615868041237113,-1.6549298969072164,-3.4112556701030927,-2.3436917525773198,-3.0825144329896905,-913.0859
63.0,1.0,603.0,-1.703080412371134,-2.834880412371134,-2.656216494845361,-2.1214701030927836,-2.5803134020618557,-1.6297298969072165,-3.3781278350515467,-2.4695701030927837,-3.029945360824742,-912.1094
63.0,1.0,604.0,-1.7856701030927835,-3.0717391752577323,-2.82470206185567,-2.229857731958763,-2.6665020618556703,-1.7270721649484535,-3.5296092783505153,-2.694990721649485,-3.324250515463918,-911.1328
63.0,1.0,605.0,-1.9480412371134022,-3.3505278350515466,-3.0991814432989693,-2.427444329896907,-2.8979556701030926,-1.957834020618557,-3.709537113402062,-2.9425670103092787,-3.7364103092783507,-910.1563
