Fz,FCz,Cz,FC3,FC4,C3,C4,CP3,CP4,subject,condition
5.5255121262135924,5.716787145631068,5.45341159223301,5.376451941747573,4.580004951456311,6.53972172815534,4.531621281553398,5.3787958446601944,5.0915109514563115,1.0,1.0
5.643300126213592,5.827606145631068,5.757007592233009,5.617703941747573,4.813346951456311,6.719605728155341,4.800580281553398,5.5226608446601935,5.367088951456311,1.0,1.0
5.709391126213592,5.923204145631068,5.93234259223301,5.816188941747573,4.970776951456311,7.005828728155341,5.042589281553399,5.616275844660193,5.588319951456311,1.0,1.0
5.695078126213592,5.958383145631068,5.835388592233009,5.801920941747572,4.9840289514563105,6.920300728155341,5.095460281553398,5.524880844660194,5.577590951456312,1.0,1.0
5.563389126213592,5.907821145631068,5.796684592233009,5.734443941747572,4.954467951456311,6.70612072815534,5.146883281553398,5.435372844660194,5.601907951456311,1.0,1.0
5.595731126213592,5.971974145631068,5.971467592233009,5.706522941747572,4.962641951456311,6.74508772815534,5.247625281553399,5.511854844660194,5.7553669514563115,1.0,1.0
5.524238126213592,5.859107145631068,5.91213759223301,5.475599941747573,4.7611549514563105,6.539824728155341,5.126606281553398,5.436011844660194,5.653623951456312,1.0,1.0
5.029044126213592,5.367056145631068,5.37224059223301,5.0574819417475725,4.237970951456311,6.0079427281553395,4.5565532815533984,4.902084844660195,5.136789951456311,1.0,1.0
4.797335126213592,5.2181491456310685,5.298247592233009,4.818583941747573,4.14513195145631,5.741635728155339,4.392590281553399,4.599600844660195,4.989947951456311,1.0,1.0
4.937741126213592,5.415013145631068,5.54012859223301,4.872821941747573,4.2880079514563105,5.68786572815534,4.500157281553398,4.655851844660194,5.0359749514563115,1.0,1.0
5.002093126213592,5.4196161456310685,5.46837759223301,4.938204941747573,4.23999395145631,5.71031472815534,4.417560281553398,4.692813844660194,4.927499951456311,1.0,1.0
5.017364126213592,5.3999431456310685,5.61353859223301,4.999009941747572,4.17721495145631,6.00909672815534,4.5331512815533985,4.817424844660194,5.090326951456311,1.0,1.0
5.161814126213592,5.547223145631068,5.87721759223301,5.069105941747573,4.3281029514563105,6.122222728155339,4.759811281553398,4.9249528446601945,5.2363299514563115,1.0,1.0
5.580656126213592,5.997348145631069,6.224429592233009,5.349538941747572,4.848561951456311,6.395158728155341,5.091310281553398,5.237743844660194,5.505964951456312,1.0,1.0
5.951404126213592,6.374318145631069,6.51554059223301,5.643298941747573,5.292946951456311,6.81267772815534,5.498558281553398,5.453403844660194,5.946301951456311,1.0,1.0
6.242630126213592,6.7116741456310685,6.80842159223301,5.945568941747573,5.636625951456311,7.10760572815534,5.840422281553398,5.592020844660194,6.278707951456311,1.0,1.0
6.621128126213591,7.098809145631068,7.19271459223301,6.272951941747573,6.0838659514563105,7.458401728155341,6.112464281553398,5.777874844660193,6.475180951456312,1.0,1.0
6.737638126213592,7.198855145631069,7.208660592233009,6.233534941747573,6.19690695145631,7.55065872815534,6.095014281553398,5.671178844660194,6.459575951456311,1.0,1.0
6.7500321262135925,7.310577145631068,7.35557259223301,6.258506941747572,6.172822951456311,7.57119772815534,6.150428281553399,5.700596844660193,6.567363951456311,1.0,1.0
6.519284126213592,7.121893145631068,7.186286592233009,6.133174941747573,5.907442951456311,7.42267872815534,5.954506281553398,5.620450844660194,6.373704951456311,1.0,1.0
6.259949126213591,6.7564771456310675,6.7842255922330095,6.001168941747572,5.451238951456311,7.09671572815534,5.613718281553398,5.339516844660194,5.983276951456311,1.0,1.0
5.995738126213592,6.526663145631069,6.6098215922330095,5.945729941747572,5.129409951456311,6.95323172815534,5.4461552815533985,5.195182844660194,5.754171951456311,1.0,1.0
5.746131126213592,6.294746145631068,6.39673659223301,5.830366941747573,4.831479951456311,6.772717728155341,5.257315281553398,5.058577844660194,5.520750951456311,1.0,1.0
5.687666126213592,6.312671145631068,6.41880859223301,5.947073941747573,4.95404195145631,6.95423872815534,5.352121281553398,5.174687844660195,5.6448409514563105,1.0,1.0
5.703683126213592,6.342187145631068,6.423635592233009,6.102123941747573,5.052289951456311,7.18593772815534,5.357773281553397,5.322733844660194,5.690239951456311,1.0,1.0
5.562692126213592,6.150467145631069,6.181233592233009,6.042529941747573,4.94607995145631,7.22417072815534,5.151570281553399,5.357810844660194,5.545829951456311,1.0,1.0
5.532503126213592,6.052899145631068,6.02395359223301,5.9270179417475735,4.887599951456311,7.11708672815534,5.077016281553399,5.186431844660194,5.496623951456311,1.0,1.0
5.444088126213591,5.792692145631069,5.85581659223301,5.705911941747572,4.707062951456311,6.73895172815534,4.937517281553398,4.821878844660194,5.2861089514563115,1.0,1.0
5.2151021262135915,5.456546145631068,5.51959859223301,5.3680319417475735,4.4348789514563105,6.1991867281553406,4.6788152815533985,4.4089278446601945,4.970750951456311,1.0,1.0
4.8864051262135915,5.137369145631068,5.09103659223301,4.961390941747573,4.149112951456311,5.79405772815534,4.3690852815533985,4.010182844660194,4.623873951456311,1.0,1.0
4.574259126213592,4.812755145631068,4.67360359223301,4.660687941747573,3.8277069514563107,5.56927372815534,3.9124992815533983,3.6390178446601937,4.238493951456311,1.0,1.0
4.391669126213592,4.609541145631068,4.46360459223301,4.633194941747573,3.6514249514563106,5.2866897281553396,3.603918281553398,3.449573844660194,3.9035019514563114,1.0,1.0
4.287005126213591,4.491556145631068,4.34654259223301,4.479142941747573,3.4669219514563103,5.13686772815534,3.4959582815533987,3.379771844660194,3.734229951456311,1.0,1.0
4.0639481262135915,4.367444145631068,4.226145592233009,4.212835941747573,3.217490951456311,4.97677472815534,3.322617281553398,3.3282408446601943,3.613773951456311,1.0,1.0
4.330425126213592,4.685301145631069,4.51964559223301,4.588626941747573,3.460307951456311,5.19380972815534,3.485790281553398,3.796035844660194,3.839242951456311,1.0,1.0
4.542569126213592,4.776549145631068,4.61197059223301,4.808743941747573,3.563376951456311,5.4929097281553405,3.566037281553398,4.108792844660194,3.919050951456311,1.0,1.0
4.306269126213592,4.4144821456310686,4.29711459223301,4.495937941747573,3.4259859514563105,5.255472728155341,3.450890281553398,3.7648118446601937,3.748825951456311,1.0,1.0
4.209197126213592,4.312951145631068,4.19247159223301,4.251661941747573,3.5306899514563104,5.08087672815534,3.541347281553398,3.619321844660194,3.768062951456311,1.0,1.0
4.230065126213592,4.297301145631068,4.07291359223301,4.195951941747572,3.5575929514563107,4.98771172815534,3.595356281553398,3.490558844660194,3.781993951456311,1.0,1.0
3.909070126213592,3.9551851456310687,3.7469875922330096,4.143019941747573,3.2280799514563108,4.81154672815534,3.391634281553398,3.251598844660194,3.505648951456311,1.0,1.0
3.6245351262135923,3.7335781456310686,3.60385459223301,3.881386941747573,3.046645951456311,4.54962972815534,3.2430242815533985,3.151750844660194,3.2784939514563107,1.0,1.0
3.5766291262135916,3.6754131456310684,3.5307665922330096,3.616635941747573,3.070703951456311,4.3672867281553405,3.1784272815533985,3.0384668446601943,3.1829169514563116,1.0,1.0
3.659125126213592,3.6675631456310684,3.40948659223301,3.602832941747573,3.138441951456311,4.38801872815534,3.1042172815533977,2.845055844660194,3.075125951456311,1.0,1.0
3.862692126213592,3.9314351456310686,3.50718059223301,3.9978599417475724,3.4481609514563107,4.68491972815534,3.287746281553398,2.9233518446601936,3.2373649514563105,1.0,1.0
4.046451126213592,4.1239481456310685,3.5889465922330093,4.2817349417475725,3.648944951456311,4.84285972815534,3.473333281553398,3.109487844660194,3.4335179514563112,1.0,1.0
3.986185126213592,3.9797941456310686,3.4304495922330096,4.201914941747573,3.575694951456311,4.88240072815534,3.4270362815533986,3.203964844660194,3.336255951456311,1.0,1.0
3.8168991262135923,3.684177145631068,3.17197259223301,4.029782941747572,3.3649989514563106,4.75655772815534,3.3084382815533986,3.196206844660194,3.201801951456311,1.0,1.0
3.611010126213592,3.5381341456310684,2.9169095922330097,3.946642941747573,3.2015639514563112,4.52430772815534,3.076644281553398,2.9921848446601937,3.098866951456311,1.0,1.0
3.675348126213592,3.5925561456310686,2.83915959223301,3.884402941747573,3.2570209514563104,4.58191372815534,3.1167222815533986,3.033726844660194,3.1720659514563114,1.0,1.0
3.851360126213592,3.6615361456310684,2.8993355922330095,4.000451941747573,3.3897109514563106,4.7592207281553405,3.3102752815533982,3.306319844660194,3.3211989514563114,1.0,1.0
3.903664126213592,3.620603145631068,2.84706159223301,4.042309941747573,3.3541029514563108,4.77688172815534,3.3297162815533983,3.346529844660194,3.283357951456311,1.0,1.0
3.9821751262135923,3.713543145631068,2.9484315922330095,4.047680941747573,3.4091949514563114,4.72304972815534,3.385743281553398,3.311192844660194,3.390931951456311,1.0,1.0
3.9127461262135923,3.7430471456310683,3.1339845922330096,3.9789379417475725,3.4037489514563104,4.79374172815534,3.5218732815533986,3.359741844660194,3.612768951456311,1.0,1.0
3.8286691262135917,3.6355031456310685,3.0213105922330095,3.7859249417475724,3.3125749514563108,4.729922728155341,3.499483281553398,3.238713844660194,3.6260859514563113,1.0,1.0
3.7636281262135918,3.4568151456310683,2.69214959223301,3.731730941747573,3.1099849514563105,4.505796728155341,3.3254882815533984,3.0858658446601934,3.4176009514563113,1.0,1.0
3.571067126213592,3.235418145631068,2.42613959223301,3.6672909417475728,2.8119769514563107,4.25701972815534,3.0762512815533984,2.943148844660194,3.111694951456311,1.0,1.0
3.2081601262135915,2.9605501456310686,2.10349559223301,3.2727759417475735,2.4555119514563106,3.8390977281553402,2.7966422815533987,2.611832844660194,2.765451951456311,1.0,1.0
2.989427126213592,2.814537145631068,1.9652485922330099,3.0102909417475727,2.396911951456311,3.7302327281553405,2.6612962815533985,2.433775844660194,2.675834951456311,1.0,1.0
3.037182126213592,2.9431731456310684,2.23481859223301,3.2182789417475726,2.564580951456311,4.0561087281553405,2.8474922815533983,2.652600844660194,2.920235951456311,1.0,1.0
3.156991126213592,3.0725161456310683,2.4764355922330097,3.442989941747573,2.669854951456311,4.29931472815534,2.920746281553398,2.918396844660194,3.133590951456311,1.0,1.0
3.1903031262135912,3.2061861456310687,2.6179915922330097,3.5635569417475725,2.7804919514563107,4.4898017281553395,2.9769442815533984,3.085714844660194,3.3038589514563115,1.0,1.0
3.253485126213592,3.321940145631068,2.7370265922330095,3.4846559417475724,2.892096951456311,4.64765772815534,3.123793281553398,3.2074258446601944,3.469525951456311,1.0,1.0
3.3402231262135915,3.3737891456310685,2.8099085922330094,3.5455589417475726,2.9035929514563104,4.71670072815534,3.2187852815533984,3.343772844660194,3.5791409514563113,1.0,1.0
3.201832126213592,3.2369341456310683,2.68806759223301,3.656876941747573,2.6512099514563108,4.57379472815534,2.953670281553398,3.211065844660194,3.4574349514563107,1.0,1.0
3.0552861262135917,3.0405601456310682,2.42083059223301,3.5423499417475726,2.368000951456311,4.469609728155341,2.673462281553398,3.087470844660194,3.184488951456311,1.0,1.0
2.7866041262135917,2.685826145631068,2.0025605922330096,3.1836549417475726,2.0159429514563105,4.08873672815534,2.315929281553398,2.787866844660194,2.797723951456311,1.0,1.0
2.749499126213592,2.5229061456310684,1.8312145922330096,3.063975941747573,1.9000639514563107,3.8808527281553404,2.142438281553398,2.5824588446601937,2.5861019514563113,1.0,1.0
3.060148126213592,2.7043731456310685,2.14038659223301,3.1850189417475723,2.1549959514563106,4.05155372815534,2.3771282815533983,2.695926844660194,2.767808951456311,1.0,1.0
3.071784126213592,2.7665001456310683,2.23566359223301,3.284117941747573,2.268014951456311,4.14258872815534,2.605575281553399,2.805847844660194,2.9476689514563112,1.0,1.0
3.0315721262135917,2.785698145631068,2.21341259223301,3.4269519417475727,2.391009951456311,4.2294517281553405,2.7660342815533983,2.826855844660194,3.0441069514563113,1.0,1.0
3.319499126213592,3.0622711456310685,2.55002959223301,3.723619941747573,2.697306951456311,4.60567272815534,3.068016281553398,3.084968844660194,3.3652289514563107,1.0,1.0
3.6896891262135916,3.470333145631068,2.9459845922330095,3.980174941747573,3.0820219514563103,4.95524272815534,3.2913282815533984,3.458734844660194,3.6749869514563107,1.0,1.0
3.707849126213592,3.5282181456310684,2.95099459223301,3.9999339417475728,3.046238951456311,4.8708517281553405,3.1651332815533983,3.3877038446601944,3.5509949514563113,1.0,1.0
3.805872126213592,3.6543671456310682,3.1349065922330097,4.077181941747572,3.1073929514563106,4.86405372815534,3.353797281553398,3.337410844660194,3.6541709514563108,1.0,1.0
3.9091471262135924,3.8589161456310683,3.5021785922330095,4.187931941747573,3.3669829514563103,5.00791572815534,3.660371281553398,3.567899844660194,3.996872951456311,1.0,1.0
3.7123921262135924,3.720766145631068,3.3772275922330097,4.0821619417475725,3.108700951456311,4.88571572815534,3.345310281553398,3.367745844660194,3.696937951456311,1.0,1.0
3.5195281262135922,3.5365311456310677,3.19516159223301,3.8104459417475725,2.758462951456311,4.71797172815534,2.9846342815533986,2.998421844660194,3.354810951456311,1.0,1.0
3.4501121262135914,3.495273145631068,3.26728959223301,3.666365941747573,2.6814929514563106,4.58563372815534,2.9179322815533983,2.9064218446601937,3.294899951456311,1.0,1.0
3.2772361262135923,3.4337481456310686,3.16440459223301,3.486399941747573,2.6866519514563105,4.31492372815534,2.7910982815533987,2.7349168446601935,3.1243849514563107,1.0,1.0
3.385187126213592,3.589349145631068,3.2550325922330097,3.447648941747573,2.8799039514563107,4.281373728155341,3.0192692815533984,2.7752908446601943,3.216497951456311,1.0,1.0
3.7883071262135917,3.9589251456310683,3.7075955922330097,3.7219239417475727,3.308171951456311,4.66393272815534,3.420441281553398,3.180567844660194,3.5241929514563113,1.0,1.0
4.203879126213592,4.365028145631069,4.14740859223301,4.007866941747572,3.655567951456311,5.01245172815534,3.7877252815533984,3.5935828446601943,3.833386951456311,1.0,1.0
4.338926126213592,4.341521145631068,4.0977675922330095,3.912820941747573,3.640128951456311,4.87849472815534,3.8330922815533985,3.636980844660194,3.839564951456311,1.0,1.0
4.253611126213592,4.189182145631068,3.79444559223301,3.683332941747573,3.5363119514563106,4.76401672815534,3.7024382815533983,3.423477844660194,3.7128999514563112,1.0,1.0
4.076657126213592,4.0747601456310685,3.56075459223301,3.571322941747573,3.360916951456311,4.48355072815534,3.4806172815533984,3.2819728446601943,3.561104951456311,1.0,1.0
4.134262126213592,4.286459145631068,3.70134359223301,3.6816489417475724,3.6114279514563106,4.51259372815534,3.5788172815533983,3.4503148446601943,3.634545951456311,1.0,1.0
4.119093126213592,4.2722681456310685,3.8077625922330096,3.689127941747573,3.5895319514563107,4.62690972815534,3.542923281553398,3.515950844660194,3.634817951456311,1.0,1.0
4.007731126213592,4.172565145631069,3.82208159223301,3.647352941747573,3.332537951456311,4.74423672815534,3.360027281553398,3.5727978446601942,3.520848951456311,1.0,1.0
4.0320501262135915,4.147422145631068,3.7856305922330096,3.784712941747573,3.2791859514563106,4.92676172815534,3.284524281553398,3.723923844660194,3.4458139514563113,1.0,1.0
4.055423126213592,4.150639145631068,3.8618045922330095,3.8656609417475725,3.2880649514563105,4.92189372815534,3.358727281553398,3.797304844660194,3.515586951456311,1.0,1.0
4.127043126213592,4.188624145631068,3.8775865922330097,3.9571449417475733,3.273640951456311,5.0437557281553405,3.481867281553398,3.8180848446601936,3.576552951456311,1.0,1.0
4.173968126213592,4.232511145631068,3.8402535922330094,4.014735941747573,3.3109979514563106,5.14231372815534,3.5399422815533983,3.932183844660194,3.6514959514563112,1.0,1.0
4.198966126213592,4.280309145631068,3.9075485922330095,3.941086941747573,3.315133951456311,5.2187507281553405,3.558139281553398,4.012229844660194,3.7318329514563104,1.0,1.0
4.094952126213592,4.277576145631068,4.04323759223301,3.831334941747573,3.4052279514563106,5.37036972815534,3.613721281553398,4.203033844660194,3.848170951456311,1.0,1.0
4.140004126213592,4.348903145631068,4.237296592233009,4.037257941747573,3.5384219514563107,5.4617607281553395,3.7027442815533984,4.431029844660194,4.048630951456311,1.0,1.0
3.969695126213592,4.221531145631069,4.11493759223301,4.082647941747573,3.392002951456311,5.420398728155341,3.5836312815533984,4.422596844660194,3.948407951456311,1.0,1.0
3.9185331262135916,4.223370145631068,4.01645559223301,4.0676739417475725,3.2311679514563103,5.318776728155339,3.413921281553398,4.333350844660194,3.782621951456311,1.0,1.0
4.128085126213592,4.293069145631068,4.09670559223301,4.265034941747573,3.3201089514563105,5.43948672815534,3.423833281553398,4.433033844660194,3.8389209514563105,1.0,1.0
4.381000126213592,4.400219145631068,4.27763959223301,4.474358941747573,3.5385129514563105,5.820339728155341,3.7024852815533986,4.689876844660194,4.059231951456311,1.0,1.0
4.356300126213592,4.368748145631068,4.29615559223301,4.347016941747572,3.578292951456311,5.81699172815534,3.7259212815533984,4.720325844660194,4.146316951456311,1.0,1.0
4.134835126213591,4.158091145631069,4.00218859223301,4.023158941747573,3.4034269514563107,5.47789372815534,3.5617942815533983,4.447666844660194,4.003166951456311,1.0,1.0
4.222006126213592,4.228371145631069,3.92005959223301,4.091268941747573,3.5180349514563107,5.36345072815534,3.7901302815533984,4.457480844660194,4.093103951456311,1.0,1.0
4.276546126213592,4.315143145631068,3.89187159223301,4.162888941747573,3.677198951456311,5.41844572815534,3.9442012815533984,4.506935844660194,4.238326951456312,1.0,1.0
4.005547126213592,4.039467145631068,3.7204015922330096,4.019146941747573,3.4877029514563107,5.21447972815534,3.658077281553398,4.335461844660194,4.049816951456311,1.0,1.0
4.072814126213592,4.054390145631068,3.75505259223301,4.056512941747573,3.5512809514563104,5.2388747281553405,3.7145532815533984,4.287661844660194,4.068722951456311,1.0,1.0
4.130629126213592,4.070952145631068,3.7468775922330098,4.065000941747573,3.649494951456311,5.21854672815534,3.7175832815533982,4.2052108446601935,4.021942951456311,1.0,1.0
4.097154126213592,4.014080145631069,3.64413059223301,4.040352941747573,3.5487989514563107,5.09913472815534,3.6170302815533977,4.109769844660194,3.8478149514563107,1.0,1.0
4.241636126213591,4.188811145631068,3.80255459223301,4.116653941747573,3.7076489514563105,5.1628907281553404,3.734888281553398,4.221462844660194,3.921094951456311,1.0,1.0
4.551887126213591,4.470690145631068,4.115533592233009,4.387764941747573,4.027513951456311,5.405711728155341,4.022388281553399,4.3510788446601945,4.2284309514563105,1.0,1.0
4.708474126213591,4.616855145631068,4.313517592233009,4.510595941747573,4.0832369514563105,5.604397728155339,4.127781281553399,4.383042844660194,4.35934595145631,1.0,1.0
4.670619126213592,4.737573145631068,4.44596259223301,4.4628679417475725,4.116083951456311,5.69018472815534,4.221626281553398,4.417983844660194,4.457460951456311,1.0,1.0
4.611349126213592,4.731261145631069,4.49781459223301,4.490807941747573,3.9869139514563106,5.67247872815534,4.204191281553398,4.531531844660194,4.490589951456311,1.0,1.0
4.445479126213592,4.688949145631068,4.545896592233009,4.515752941747573,3.775225951456311,5.62333272815534,4.061796281553398,4.458429844660194,4.404337951456311,1.0,1.0
4.202976126213592,4.562987145631069,4.48646959223301,4.375202941747573,3.5320669514563106,5.52144272815534,3.9342082815533983,4.200167844660195,4.331847951456311,1.0,1.0
4.073147126213592,4.471634145631069,4.43055759223301,4.088754941747573,3.3955189514563107,5.4082077281553405,3.8118162815533982,4.041470844660194,4.289498951456311,1.0,1.0
4.042632126213593,4.495020145631068,4.49791259223301,3.9607929417475725,3.54833095145631,5.299629728155341,3.7901802815533983,3.975274844660194,4.277425951456311,1.0,1.0
4.231874126213592,4.757783145631069,4.90343559223301,4.406716941747573,3.9320439514563104,5.64750372815534,4.184855281553398,4.403520844660194,4.628780951456311,1.0,1.0
4.524647126213591,5.068995145631068,5.244856592233009,4.863076941747573,4.152295951456311,6.10020972815534,4.493603281553398,4.794496844660194,4.926448951456311,1.0,1.0
4.7859591262135925,5.374575145631067,5.49128459223301,4.960207941747573,4.4268469514563105,6.26149272815534,4.769431281553398,4.913246844660194,5.1429599514563105,1.0,1.0
4.715963126213592,5.343169145631069,5.44540559223301,4.753696941747573,4.406216951456311,6.1410507281553395,4.670917281553399,4.699513844660194,5.0158639514563115,1.0,1.0
4.673643126213592,5.2250881456310685,5.37452759223301,4.741492941747573,4.30677495145631,5.99794272815534,4.440752281553398,4.454176844660194,4.79657895145631,1.0,1.0
4.704330126213592,5.198124145631068,5.436757592233009,4.7861449417475725,4.336078951456311,6.0157527281553405,4.437657281553398,4.413230844660194,4.74101095145631,1.0,1.0
4.581782126213592,5.042952145631068,5.2991515922330095,4.667186941747572,4.07766395145631,6.034488728155341,4.292880281553398,4.4276658446601935,4.497776951456311,1.0,1.0
4.339591126213592,4.798984145631068,5.0054285922330095,4.368650941747573,3.753147951456311,5.8010887281553405,3.9435962815533983,4.248769844660194,4.142906951456311,1.0,1.0
4.294176126213592,4.842219145631068,5.08968659223301,4.374486941747573,3.8135519514563105,5.675340728155341,3.9149082815533984,4.200629844660194,4.071994951456311,1.0,1.0
4.204475126213592,4.807117145631069,5.145188592233009,4.390695941747573,3.8614689514563105,5.65230772815534,3.993781281553398,4.129604844660194,4.122520951456312,1.0,1.0
4.071057126213592,4.728073145631068,5.08214559223301,4.429311941747573,3.8510719514563108,5.6092047281553405,3.983410281553398,4.076934844660194,4.190341951456311,1.0,1.0
3.895584126213592,4.570923145631068,4.85470059223301,4.379120941747573,3.7201299514563106,5.46549572815534,3.8750432815533986,3.8950618446601943,4.039184951456311,1.0,1.0
3.8761581262135922,4.478206145631068,4.66518059223301,4.185021941747573,3.6777629514563106,5.41127572815534,3.8536182815533984,3.7758628446601943,3.951442951456311,1.0,1.0
3.8341471262135918,4.313061145631068,4.46635759223301,3.9710279417475727,3.531987951456311,5.28233472815534,3.6820772815533984,3.5898098446601945,3.7624009514563106,1.0,1.0
3.810353126213592,4.2306161456310685,4.2973405922330095,3.940910941747573,3.3300989514563106,5.15037972815534,3.402280281553398,3.517829844660194,3.619722951456311,1.0,1.0
3.727330126213592,4.017949145631068,3.8948035922330098,3.7460889417475727,3.0909939514563107,4.74659672815534,3.054493281553398,3.2755738446601943,3.283670951456311,1.0,1.0
3.416048126213592,3.652325145631068,3.4189215922330094,3.482625941747573,2.8410559514563105,4.48478072815534,2.7426672815533983,3.065857844660194,2.9616309514563106,1.0,1.0
3.298904126213592,3.561702145631068,3.26058859223301,3.442656941747573,2.8412189514563106,4.52284072815534,2.7867472815533985,3.1516408446601942,3.000696951456311,1.0,1.0
3.384420126213592,3.6210171456310682,3.31978959223301,3.477317941747573,2.907569951456311,4.49841372815534,2.8633792815533985,3.201164844660194,3.091208951456311,1.0,1.0
3.374495126213592,3.622017145631068,3.4188855922330093,3.342237941747573,2.8398839514563106,4.34432372815534,2.8229042815533982,3.0805918446601943,3.071552951456311,1.0,1.0
3.225009126213592,3.482193145631068,3.2668745922330094,3.182148941747573,2.6853719514563106,4.25036372815534,2.750932281553398,3.117815844660194,2.988851951456311,1.0,1.0
2.9519911262135916,3.2585391456310684,3.0011725922330097,3.124142941747573,2.411373951456311,4.16669772815534,2.6456142815533985,3.097173844660194,2.881255951456311,1.0,1.0
2.881872126213592,3.069393145631068,2.77416859223301,3.1205589417475728,2.2226649514563106,3.92431272815534,2.4185082815533985,2.834097844660194,2.7157279514563104,1.0,1.0
2.8232391262135916,2.8340471456310685,2.62574259223301,2.964212941747573,2.109539951456311,3.7434257281553402,2.240759281553398,2.4118068446601937,2.428031951456311,1.0,1.0
2.855890126213592,2.847819145631068,2.72422859223301,2.942838941747573,2.1643469514563107,3.75002972815534,2.3402012815533983,2.2667758446601938,2.336921951456311,1.0,1.0
3.105900126213592,3.101004145631068,2.9267315922330095,3.190574941747573,2.3705749514563106,3.92192272815534,2.6229252815533983,2.581058844660194,2.591385951456311,1.0,1.0
3.280981126213592,3.375417145631068,3.09781459223301,3.3642909417475733,2.616301951456311,4.07041772815534,2.9226322815533985,2.881358844660194,2.8900929514563107,1.0,1.0
3.162386126213592,3.3322951456310683,3.0500645922330096,3.259684941747573,2.7064849514563103,4.050438728155339,2.9445462815533983,2.8076518446601937,2.928923951456311,1.0,1.0
2.9218511262135918,3.1161021456310682,2.86993059223301,3.024869941747573,2.5412159514563104,3.8501307281553405,2.7814612815533986,2.549276844660194,2.865653951456311,1.0,1.0
2.742175126213592,2.8459691456310683,2.636646592233009,2.6928169417475725,2.345891951456311,3.5517417281553403,2.5804602815533983,2.272289844660194,2.7975049514563106,1.0,1.0
2.485796126213592,2.6262661456310683,2.3943495922330094,2.3651959417475727,2.1298579514563105,3.34713772815534,2.4028752815533982,2.0916048446601945,2.695170951456311,1.0,1.0
2.510026126213592,2.6667811456310684,2.45810259223301,2.347448941747573,2.257490951456311,3.39793072815534,2.577296281553398,2.191367844660194,2.835578951456311,1.0,1.0
2.755345126213592,2.8943761456310684,2.8042435922330093,2.5157049417475728,2.6544529514563107,3.5983437281553403,2.8742702815533985,2.521785844660194,3.101509951456311,1.0,1.0
2.711232126213592,2.8267051456310686,2.7885135922330098,2.5692699417475726,2.5294279514563107,3.64150372815534,2.844791281553398,2.6209338446601937,3.080881951456311,1.0,1.0
2.4445291262135918,2.623403145631068,2.50643859223301,2.313880941747573,2.2999379514563105,3.4649207281553402,2.642061281553398,2.236326844660194,2.912060951456311,1.0,1.0
2.270688126213592,2.518081145631068,2.3892775922330096,2.166116941747573,2.2282229514563108,3.30550572815534,2.5764692815533983,2.088156844660194,2.799939951456311,1.0,1.0
2.246411126213592,2.3936761456310682,2.2450185922330097,2.205734941747573,2.0564649514563107,3.04568672815534,2.2517232815533985,2.075398844660194,2.494327951456311,1.0,1.0
2.186150126213592,2.2525721456310683,2.1140125922330095,2.202239941747573,1.9549759514563108,2.96633472815534,2.1312092815533985,1.9052968446601941,2.308761951456311,1.0,1.0
2.1179091262135916,2.181939145631068,1.9969655922330096,1.957396941747573,1.9134039514563106,2.93293772815534,2.0911132815533984,1.7759108446601939,2.2254829514563106,1.0,1.0
2.475035126213592,2.6715241456310683,2.46664659223301,2.300859941747573,2.469747951456311,3.41350372815534,2.5813082815533983,2.2244608446601943,2.6778489514563106,1.0,1.0
3.007936126213592,3.1372851456310684,3.0074955922330098,2.908064941747573,3.151310951456311,4.01773772815534,3.2492502815533983,2.722709844660194,3.233229951456311,1.0,1.0
3.1665451262135917,3.275896145631068,3.10401259223301,3.1237569417475726,3.410687951456311,4.22976772815534,3.5834562815533983,2.881777844660194,3.486505951456311,1.0,1.0
3.270214126213592,3.3975871456310682,3.0431255922330096,3.0815489417475725,3.535500951456311,4.21035972815534,3.6482142815533987,2.8596038446601937,3.532448951456311,1.0,1.0
3.365338126213592,3.409830145631068,3.0083085922330097,3.1292319417475727,3.548733951456311,4.12292672815534,3.6276482815533986,2.7975178446601943,3.461530951456311,1.0,1.0
3.557298126213592,3.5621971456310684,3.08458559223301,3.3072309417475725,3.613828951456311,4.21739172815534,3.659062281553398,2.962265844660194,3.535078951456311,1.0,1.0
3.587147126213592,3.531491145631068,2.9335615922330094,3.3073279417475727,3.579215951456311,4.311351728155341,3.674357281553398,3.1104938446601937,3.568749951456311,1.0,1.0
3.517653126213592,3.4137841456310682,2.8905485922330096,3.3925229417475724,3.4888999514563106,4.30928272815534,3.7119832815533984,3.348434844660194,3.642066951456311,1.0,1.0
3.1829561262135915,3.1323711456310686,2.7158055922330093,3.2712039417475727,3.1732709514563107,4.17260972815534,3.4919122815533985,3.134501844660194,3.423004951456311,1.0,1.0
2.875050126213592,2.8751861456310683,2.4767655922330096,3.003163941747573,2.829617951456311,4.004436728155341,3.152043281553398,2.910536844660194,3.172260951456311,1.0,1.0
2.622768126213592,2.5600561456310684,2.1472425922330096,2.8073349417475724,2.398846951456311,3.7600527281553404,2.811408281553398,2.7740608446601938,2.955126951456311,1.0,1.0
2.6271181262135923,2.4969861456310682,2.1416165922330097,2.8819009417475727,2.2963839514563107,3.7993657281553403,2.8545672815533982,2.919874844660194,3.014089951456311,1.0,1.0
2.6362081262135915,2.4633311456310683,2.3196015922330098,2.865906941747573,2.199822951456311,3.91817472815534,2.943089281553398,3.0262728446601943,3.071408951456311,1.0,1.0
2.478446126213592,2.334329145631068,2.24112259223301,2.772554941747573,2.007153951456311,4.03434072815534,2.8398062815533986,3.014668844660194,3.024158951456311,1.0,1.0
2.316934126213592,2.3237371456310685,2.0972705922330097,2.7973649417475728,1.8982959514563107,4.05546972815534,2.6277142815533985,3.0024498446601937,2.9296749514563114,1.0,1.0
2.3327171262135917,2.361455145631068,2.1052245922330095,2.835630941747573,1.9554329514563107,4.0444677281553405,2.540364281553398,2.9908638446601943,2.879950951456311,1.0,1.0
2.521426126213592,2.454781145631068,2.2090445922330098,2.8748529417475726,2.2242439514563106,4.14821872815534,2.727857281553398,3.033944844660194,2.905403951456311,1.0,1.0
2.3201551262135918,2.2788361456310686,2.00360059223301,2.690948941747573,2.025395951456311,3.99462572815534,2.5513432815533985,2.848692844660194,2.646334951456311,1.0,1.0
2.1244931262135918,2.121029145631068,1.8090505922330098,2.6027319417475727,1.6949619514563108,3.7466497281553397,2.203981281553398,2.545073844660194,2.330725951456311,1.0,1.0
2.113793126213592,2.1219461456310684,1.6966185922330097,2.620668941747573,1.564793951456311,3.4838327281553405,1.9906982815533982,2.334163844660194,2.175971951456311,1.0,1.0
2.395310126213592,2.3129611456310686,1.8151885922330098,2.8413909417475725,1.687653951456311,3.56011172815534,2.0728272815533986,2.499598844660194,2.3155239514563113,1.0,1.0
2.574200126213592,2.551421145631068,2.0989405922330095,3.1383779417475726,1.8392269514563109,3.82729772815534,2.1231122815533983,2.789640844660194,2.409378951456311,1.0,1.0
2.528750126213592,2.662364145631068,2.2218355922330097,3.2037629417475726,1.8079059514563107,3.94670772815534,2.089116281553398,2.8263268446601937,2.3271099514563107,1.0,1.0
2.510961126213592,2.698120145631068,2.2554395922330097,3.200061941747573,1.7122039514563108,3.88083172815534,2.1383052815533983,2.8427878446601937,2.3262839514563107,1.0,1.0
2.552580126213592,2.6965091456310684,2.2978525922330095,3.1962929417475725,1.7355639514563106,3.8276757281553397,2.162110281553398,2.781329844660194,2.322347951456311,1.0,1.0
2.528673126213592,2.7195291456310686,2.35421459223301,3.162605941747573,1.8801229514563107,4.02436172815534,2.1617052815533984,2.778096844660194,2.2911549514563108,1.0,1.0
2.618363126213592,2.7787511456310683,2.3676255922330096,3.1878759417475733,1.8740389514563105,4.03366372815534,2.0197632815533986,2.712041844660194,2.161431951456311,1.0,1.0
2.500146126213592,2.5894691456310683,2.1819325922330095,3.0039329417475726,1.6059059514563108,3.74404472815534,1.7531312815533981,2.510986844660194,1.8738579514563112,1.0,1.0
2.376757126213592,2.3531311456310684,2.03360259223301,2.9000829417475726,1.499451951456311,3.6573867281553403,1.5013512815533983,2.318110844660194,1.608600951456311,1.0,1.0
2.212065126213592,2.1433491456310683,1.89824059223301,2.7220429417475724,1.3285749514563108,3.5464647281553403,1.3238442815533984,2.232370844660194,1.414815951456311,1.0,1.0
2.2235421262135917,2.1596491456310685,1.9213095922330097,2.6531559417475727,1.3948709514563107,3.4743187281553403,1.4250642815533983,2.166707844660194,1.465224951456311,1.0,1.0
2.235403126213592,2.129874145631068,1.8722255922330098,2.5937719417475726,1.3973879514563108,3.2601657281553402,1.4416002815533984,2.049514844660194,1.4463369514563111,1.0,1.0
2.0187051262135918,1.9334201456310687,1.7617655922330095,2.4719959417475725,1.2273259514563108,3.13429272815534,1.2223172815533982,1.901896844660194,1.218401951456311,1.0,1.0
1.8868551262135917,1.9175701456310683,1.7267285922330098,2.3638709417475727,1.0657749514563108,3.1383667281553396,1.1403192815533982,1.711253844660194,1.1443639514563109,1.0,1.0
1.855877126213592,1.8739541456310682,1.7089145922330096,2.140290941747573,1.0566829514563107,2.9906327281553398,1.161274281553398,1.650989844660194,1.232574951456311,1.0,1.0
1.5579141262135918,1.5597641456310685,1.4310235922330097,1.8542929417475726,0.9364359514563106,2.68049872815534,1.0260752815533982,1.4586388446601941,1.1768069514563109,1.0,1.0
1.2569221262135921,1.2229091456310683,1.1533405922330098,1.512153941747573,0.6243839514563106,2.2726357281553398,0.8532852815533982,1.268108844660194,0.9702669514563108,1.0,1.0
1.1725091262135918,1.083507145631068,1.1339025922330097,1.325289941747573,0.5493609514563108,2.11856672815534,0.7737492815533984,1.235495844660194,0.9530669514563109,1.0,1.0
1.148049126213592,1.1188851456310682,1.1581725922330097,1.3481929417475729,0.5156889514563108,2.19301272815534,0.8000182815533984,1.232744844660194,1.0182289514563108,1.0,1.0
1.355233126213592,1.3708811456310683,1.2640615922330098,1.657596941747573,0.7611329514563109,2.49948072815534,1.0621792815533981,1.4054498446601942,1.2495399514563108,1.0,1.0
1.6849501262135922,1.5834171456310682,1.36291459223301,1.8255209417475728,1.0997059514563106,2.63634972815534,1.3502802815533983,1.5677078446601942,1.4980349514563107,1.0,1.0
2.083628126213592,1.8954851456310684,1.7277715922330097,2.0619889417475727,1.5613059514563108,2.8943837281553395,1.8146282815533983,1.742558844660194,1.936756951456311,1.0,1.0
2.095735126213592,1.9497791456310685,1.8257515922330096,2.0552849417475727,1.7169589514563106,3.02637972815534,2.014053281553398,1.8182228446601942,2.007119951456311,1.0,1.0
1.915223126213592,1.8357641456310683,1.7244845922330096,1.892489941747573,1.6261859514563104,2.9904937281553403,1.8941232815533982,1.865334844660194,1.9078529514563107,1.0,1.0
2.035568126213592,1.9635241456310681,1.91614359223301,2.051767941747573,1.7219729514563107,3.0096397281553404,1.9896902815533986,1.882290844660194,1.9858639514563112,1.0,1.0
2.022793126213592,1.9499961456310684,1.9043545922330096,2.1841329417475728,1.6007809514563107,2.86822872815534,1.9345482815533983,1.816848844660194,1.944724951456311,1.0,1.0
1.9734311262135922,1.883532145631068,1.8755705922330097,2.1750589417475727,1.4028149514563106,2.68804372815534,1.7863132815533984,1.7962618446601943,1.8708179514563108,1.0,1.0
2.172920126213592,2.027443145631068,2.0179835922330094,2.225700941747573,1.5408939514563107,2.88555772815534,1.860755281553398,1.9451978446601939,1.9630209514563108,1.0,1.0
2.3451161262135916,2.219542145631068,2.2120525922330097,2.3132339417475727,1.7647769514563105,3.14787872815534,1.9919542815533984,2.073037844660194,2.1532109514563107,1.0,1.0
2.5446561262135923,2.4313991456310684,2.39552259223301,2.4053849417475726,1.9544829514563105,3.24270672815534,2.153850281553398,2.233627844660194,2.398909951456311,1.0,1.0
2.660711126213592,2.5082171456310682,2.5089755922330097,2.4237209417475727,2.0839919514563108,3.1816657281553398,2.328581281553398,2.2107068446601943,2.553559951456311,1.0,1.0
2.699284126213592,2.6557531456310683,2.5460735922330096,2.583803941747573,2.1196119514563105,3.19252072815534,2.3731382815533983,2.190075844660194,2.5622859514563108,1.0,1.0
2.886973126213592,2.7427851456310686,2.5949135922330093,2.766417941747573,2.2431879514563104,3.3819967281553405,2.5383882815533982,2.341588844660194,2.690055951456311,1.0,1.0
3.1559681262135917,2.949340145631068,2.8307055922330098,3.0729429417475727,2.5872549514563103,3.5605637281553397,2.810464281553398,2.578175844660194,2.9422219514563106,1.0,1.0
3.1486151262135924,3.0348571456310687,2.8662145922330096,3.0179779417475725,2.5740409514563107,3.5379747281553398,2.7951892815533985,2.521799844660194,2.969846951456311,1.0,1.0
3.036393126213592,2.9090361456310685,2.8540985922330098,2.947299941747573,2.366954951456311,3.4776197281553403,2.7318962815533983,2.314521844660194,2.9260099514563107,1.0,1.0
3.0863931262135917,3.0939031456310686,3.0533905922330096,3.132457941747573,2.5680419514563106,3.63568672815534,2.9698872815533988,2.516241844660194,3.169666951456311,1.0,1.0
3.238317126213592,3.3026251456310685,3.1983555922330096,3.2725929417475728,2.766858951456311,3.8299677281553404,3.195535281553398,2.831463844660194,3.377530951456311,1.0,1.0
3.458111126213592,3.548228145631068,3.4489915922330097,3.3837979417475723,3.164105951456311,4.0165207281553394,3.5652522815533985,2.9792238446601944,3.689934951456311,1.0,1.0
3.647639126213592,3.852896145631068,3.7431105922330095,3.475007941747573,3.549723951456311,4.03134672815534,3.871246281553398,3.1134648446601942,4.005610951456311,1.0,1.0
3.8002731262135923,4.132289145631068,3.9941115922330095,3.598575941747573,3.731394951456311,3.9220037281553397,4.0399052815533985,3.142797844660194,4.209198951456311,1.0,1.0
4.053335126213592,4.382168145631068,4.21087059223301,3.6618989417475727,3.878524951456311,4.14367772815534,4.260393281553398,3.2969618446601943,4.396980951456311,1.0,1.0
4.264449126213592,4.540762145631068,4.40390359223301,3.767976941747573,3.9523519514563112,4.4795017281553395,4.356817281553399,3.5373198446601943,4.528767951456311,1.0,1.0
4.359919126213592,4.6252571456310685,4.58864859223301,3.938886941747573,3.962399951456311,4.66649472815534,4.329942281553398,3.6945138446601944,4.559723951456311,1.0,1.0
4.386600126213592,4.669705145631068,4.7519085922330095,4.019315941747573,3.857144951456311,4.80808072815534,4.2262492815533985,3.694976844660194,4.481406951456311,1.0,1.0
4.395342126213592,4.594980145631069,4.677694592233009,4.0725539417475725,3.8137649514563106,5.01754172815534,4.102531281553398,3.700836844660194,4.3566469514563115,1.0,1.0
4.331156126213592,4.4984841456310685,4.53053659223301,4.116928941747573,3.897764951456311,5.16448472815534,4.139898281553399,3.770318844660194,4.345193951456311,1.0,1.0
4.403273126213592,4.665476145631068,4.62938159223301,4.274535941747573,4.006829951456311,5.24939272815534,4.182312281553398,3.930372844660194,4.450404951456311,1.0,1.0
4.648430126213592,4.982065145631068,4.888834592233009,4.486017941747573,4.165420951456311,5.475896728155339,4.328779281553398,4.221257844660194,4.626677951456311,1.0,1.0
4.867899126213592,5.138149145631068,4.99759559223301,4.703789941747573,4.339924951456311,5.64070972815534,4.481128281553398,4.4571678446601934,4.731533951456311,1.0,1.0
4.877191126213592,5.087519145631068,4.95544959223301,4.817998941747573,4.223962951456311,5.70054472815534,4.3756492815533985,4.381151844660194,4.604382951456311,1.0,1.0
4.909506126213592,5.071655145631068,4.93193259223301,4.8173119417475725,4.15613095145631,5.66404672815534,4.269243281553398,4.347906844660194,4.549655951456311,1.0,1.0
4.896363126213592,5.0529461456310685,4.95126759223301,4.833302941747573,4.169696951456311,5.73968272815534,4.353294281553398,4.518405844660194,4.620430951456311,1.0,1.0
4.579075126213592,4.863401145631069,4.83688859223301,4.705622941747572,3.8791769514563104,5.65786972815534,4.123842281553398,4.455861844660194,4.347077951456311,1.0,1.0
4.321873126213592,4.670832145631068,4.65543359223301,4.565758941747573,3.613574951456311,5.417663728155341,3.800914281553398,4.145462844660194,4.020430951456311,1.0,1.0
4.0093211262135915,4.491446145631068,4.359374592233009,4.293641941747573,3.276448951456311,5.175602728155341,3.4445462815533983,3.876645844660194,3.676154951456311,1.0,1.0
3.781775126213592,4.220371145631068,4.02915559223301,4.086072941747573,2.975429951456311,4.92994472815534,3.024474281553398,3.6681978446601935,3.3213629514563108,1.0,1.0
4.089284126213592,4.400774145631068,4.223552592233009,4.342628941747573,3.232613951456311,5.1686537281553395,3.2742662815533983,4.006967844660194,3.533119951456311,1.0,1.0
4.363300126213591,4.590800145631068,4.37282359223301,4.628315941747573,3.443809951456311,5.4642517281553395,3.4992402815533983,4.326254844660194,3.7090859514563106,1.0,1.0
4.236771126213592,4.464647145631068,4.22336659223301,4.616814941747573,3.331625951456311,5.44695172815534,3.261309281553398,4.276987844660194,3.5140949514563107,1.0,1.0
4.063296126213592,4.297333145631068,4.14127259223301,4.527792941747572,3.130207951456311,5.31078272815534,3.0018462815533984,4.089384844660193,3.2688119514563114,1.0,1.0
4.194733126213592,4.430017145631068,4.26578359223301,4.6471459417475725,3.099031951456311,5.37154472815534,2.935262281553398,4.021677844660194,3.300572951456311,1.0,1.0
4.571155126213592,4.802957145631068,4.58913359223301,4.906790941747572,3.385259951456311,5.65225772815534,3.303199281553398,4.399755844660194,3.736920951456311,1.0,1.0
4.713649126213592,5.0077931456310685,4.78485659223301,4.973563941747573,3.709234951456311,5.69088072815534,3.612887281553398,4.610088844660194,4.031263951456311,1.0,1.0
4.781149126213593,5.125042145631069,4.856497592233009,5.094775941747573,3.880678951456311,5.851073728155339,3.7213582815533983,4.729260844660194,4.120304951456311,1.0,1.0
5.087812126213592,5.333621145631068,5.019920592233009,5.334611941747572,4.116111951456311,6.19997572815534,3.909784281553398,4.937898844660194,4.290184951456311,1.0,1.0
5.262356126213592,5.592413145631068,5.2197695922330105,5.502939941747573,4.373376951456311,6.37127572815534,4.124001281553398,5.067910844660194,4.420451951456311,1.0,1.0
5.427760126213592,5.817508145631068,5.36814659223301,5.6200339417475735,4.499280951456311,6.40559772815534,4.313694281553398,5.144424844660194,4.5425329514563115,1.0,1.0
5.391056126213592,5.833634145631069,5.41940459223301,5.5789399417475725,4.5513899514563105,6.347535728155339,4.3514012815533984,5.186146844660194,4.547131951456311,1.0,1.0
5.622160126213592,6.141732145631068,5.653139592233009,5.842183941747573,4.8038869514563105,6.61229972815534,4.600259281553399,5.338595844660194,4.774400951456311,1.0,1.0
5.765105126213593,6.251205145631068,5.787540592233009,6.033423941747572,4.988670951456311,6.77785072815534,4.811119281553399,5.530137844660194,4.980755951456311,1.0,1.0
5.485919126213592,5.999858145631069,5.64559059223301,5.9175179417475725,4.846556951456311,6.69863972815534,4.785624281553399,5.425770844660194,4.936710951456311,1.0,1.0
5.158313126213592,5.715254145631068,5.4510805922330094,5.666404941747572,4.606114951456311,6.35397672815534,4.626626281553398,5.226423844660194,4.774529951456311,1.0,1.0
4.843018126213592,5.347295145631068,5.09430259223301,5.303773941747572,4.302061951456311,5.91226572815534,4.3296132815533985,4.910382844660194,4.555154951456311,1.0,1.0
4.762443126213592,5.1253651456310685,4.81280259223301,5.164209941747573,4.025085951456311,5.821816728155341,4.145513281553399,4.724233844660194,4.468274951456311,1.0,1.0
4.592328126213592,4.849501145631068,4.65320359223301,4.923534941747573,3.8324899514563104,5.66597572815534,3.9290512815533982,4.651332844660194,4.270777951456311,1.0,1.0
4.400255126213592,4.747463145631068,4.54078559223301,4.700061941747573,3.6919169514563106,5.4693547281553405,3.8558392815533984,4.482910844660194,4.226953951456311,1.0,1.0
4.384436126213592,4.851598145631068,4.62270859223301,4.718386941747573,3.761654951456311,5.512323728155341,4.054130281553398,4.376496844660195,4.4601749514563105,1.0,1.0
4.179556126213592,4.699602145631069,4.55296859223301,4.460114941747573,3.681795951456311,5.32075272815534,3.878836281553398,4.202408844660194,4.366184951456311,1.0,1.0
4.066917126213593,4.541221145631068,4.4650095922330095,4.256490941747573,3.478760951456311,5.07668372815534,3.6668672815533983,4.030261844660194,4.174823951456311,1.0,1.0
4.074804126213592,4.560839145631068,4.38092659223301,4.150209941747573,3.4880109514563107,4.99248172815534,3.663544281553398,3.915595844660194,4.151380951456311,1.0,1.0
4.158624126213592,4.5965041456310685,4.31124159223301,4.0975769417475725,3.7041809514563107,5.022250728155339,3.7734092815533984,3.923489844660194,4.217283951456311,1.0,1.0
4.206497126213592,4.500388145631068,4.31376259223301,4.047048941747573,3.780731951456311,4.94111172815534,3.8334762815533985,3.926803844660194,4.17434195145631,1.0,1.0
4.086101126213592,4.411961145631069,4.3237555922330095,3.968410941747573,3.746116951456311,4.77550972815534,3.793318281553398,3.831558844660194,4.094306951456311,1.0,1.0
3.8849561262135923,4.317487145631068,4.13342859223301,3.792904941747573,3.6087289514563103,4.67963172815534,3.6981372815533984,3.704063844660194,4.105071951456311,1.0,1.0
3.659503126213592,4.0245941456310685,3.70862759223301,3.577548941747573,3.3416419514563107,4.434360728155339,3.4867512815533983,3.428501844660194,3.8951799514563112,1.0,1.0
3.536777126213592,3.8536731456310687,3.5522535922330096,3.630691941747573,3.2366509514563107,4.32980072815534,3.3710982815533983,3.4584398446601936,3.788338951456311,1.0,1.0
3.596062126213592,3.991441145631068,3.7118435922330097,3.7258359417475733,3.2140069514563105,4.47724472815534,3.414252281553398,3.669099844660194,3.8690729514563107,1.0,1.0
3.680835126213592,3.960432145631068,3.6569805922330096,3.646849941747573,3.083890951456311,4.44032272815534,3.249633281553398,3.5633808446601942,3.7489269514563106,1.0,1.0
3.622402126213592,3.7525571456310685,3.3150945922330095,3.563782941747573,2.9493999514563107,4.34111672815534,3.158889281553398,3.345535844660194,3.539732951456311,1.0,1.0
3.476041126213592,3.6173831456310683,3.10136159223301,3.548525941747573,2.822900951456311,4.27662872815534,3.1051792815533985,3.1646878446601936,3.314084951456311,1.0,1.0
3.3793781262135916,3.475861145631068,2.91580859223301,3.4170869417475727,2.6108239514563105,4.205248728155341,2.7549722815533983,2.9788658446601937,2.995948951456311,1.0,1.0
3.418856126213592,3.5010531456310683,2.9523135922330095,3.4651149417475726,2.6035839514563106,4.27372272815534,2.7241172815533985,3.1305368446601936,3.068397951456311,1.0,1.0
3.749112126213592,3.801628145631068,3.2272205922330097,3.7057969417475727,2.9835519514563105,4.52907472815534,3.163506281553398,3.372157844660194,3.530050951456311,1.0,1.0
3.874114126213592,3.9053031456310685,3.36452659223301,3.747993941747573,3.172706951456311,4.71360472815534,3.3667972815533984,3.4825048446601943,3.726572951456311,1.0,1.0
3.735775126213592,3.894646145631068,3.3439825922330098,3.669599941747573,3.170375951456311,4.72417272815534,3.3206402815533984,3.556915844660194,3.7184019514563107,1.0,1.0
3.644448126213592,3.866895145631068,3.3207595922330095,3.524416941747573,3.0529289514563107,4.55692572815534,3.149277281553398,3.500477844660194,3.662225951456311,1.0,1.0
3.638484126213592,3.823457145631068,3.32532359223301,3.454876941747573,2.8784099514563106,4.44421272815534,2.9261852815533986,3.444621844660194,3.530119951456311,1.0,1.0
3.499565126213592,3.6118741456310683,3.07537859223301,3.4312379417475727,2.5842549514563107,4.30915072815534,2.662706281553398,3.350852844660194,3.3387599514563107,1.0,1.0
3.5932361262135917,3.7347351456310687,3.13694359223301,3.6291029417475733,2.7379019514563105,4.53007572815534,2.8107932815533987,3.4459168446601947,3.4224229514563107,1.0,1.0
3.783799126213592,3.9170441456310683,3.3333705922330097,3.677226941747573,3.000659951456311,4.81977272815534,3.035740281553398,3.5447988446601943,3.480587951456311,1.0,1.0
3.845516126213592,4.026502145631068,3.43128459223301,3.7129069417475726,3.1342019514563106,4.98636372815534,3.1046612815533985,3.612837844660194,3.438965951456311,1.0,1.0
3.657235126213592,3.9253331456310683,3.3828035922330097,3.5987469417475726,3.0302029514563107,4.95306272815534,2.9862152815533984,3.650063844660194,3.266010951456311,1.0,1.0
3.484372126213592,3.7300091456310684,3.2080315922330094,3.6392969417475727,2.891999951456311,4.94254572815534,2.8038342815533985,3.760795844660194,3.044886951456311,1.0,1.0
3.688204126213592,3.852984145631068,3.31351659223301,3.981286941747573,2.9849399514563104,5.07836172815534,2.8780262815533986,3.9526578446601945,3.108396951456311,1.0,1.0
3.8615971262135917,3.939118145631068,3.3544635922330097,4.0320789417475735,2.9846879514563107,4.94027472815534,2.9702342815533984,4.0555818446601934,3.181950951456311,1.0,1.0
3.879164126213592,3.907644145631068,3.34925359223301,3.9728839417475728,2.8411049514563107,4.80392572815534,2.909053281553398,4.104291844660193,3.1747329514563107,1.0,1.0
3.6722931262135923,3.777791145631068,3.20705659223301,3.864619941747573,2.673345951456311,4.84706072815534,2.6956392815533987,4.085102844660194,3.0995749514563107,1.0,1.0
3.4187961262135924,3.689603145631068,3.12561159223301,3.808268941747573,2.624444951456311,4.87939372815534,2.6396862815533986,4.085928844660194,3.000212951456311,1.0,1.0
3.323590126213592,3.6188271456310686,3.12765859223301,3.879305941747573,2.6841559514563107,4.895811728155341,2.7993812815533983,4.241028844660194,3.0819569514563114,1.0,1.0
3.104486126213592,3.426946145631068,3.15088559223301,3.7532179417475726,2.533111951456311,4.80559872815534,2.794379281553398,4.203570844660194,3.049110951456311,1.0,1.0
2.772459126213592,3.050907145631068,2.8172565922330097,3.3304709417475724,2.052272951456311,4.45304372815534,2.3381512815533982,3.8361078446601944,2.666300951456311,1.0,1.0
2.639669126213592,2.869704145631068,2.46034659223301,3.0824159417475725,1.9334639514563108,4.207542728155341,2.091651281553398,3.6263258446601943,2.4662889514563107,1.0,1.0
2.598428126213592,2.9716011456310683,2.5714075922330095,3.0828989417475725,2.117640951456311,4.18636572815534,2.2188122815533986,3.632556844660194,2.5844149514563113,1.0,1.0
2.823978126213592,3.158638145631068,2.7495755922330094,3.281572941747573,2.3797549514563108,4.33393572815534,2.453478281553398,3.7363948446601944,2.773483951456311,1.0,1.0
2.975815126213592,3.2814271456310684,2.7665935922330096,3.4163979417475723,2.434032951456311,4.55222272815534,2.5665612815533985,3.824808844660194,2.862084951456311,1.0,1.0
2.943563126213592,3.357847145631068,2.8975645922330098,3.5070059417475727,2.4435109514563105,4.64446472815534,2.6098712815533984,3.944177844660194,2.971557951456311,1.0,1.0
2.9872381262135916,3.418765145631068,3.08108759223301,3.7312899417475727,2.645486951456311,4.75809472815534,2.752876281553398,4.146941844660194,3.1848539514563106,1.0,1.0
3.085324126213592,3.454037145631068,3.1824515922330097,3.798356941747573,2.826534951456311,4.74556172815534,2.8611602815533983,4.205423844660194,3.328414951456311,1.0,1.0
3.191499126213592,3.526809145631068,3.1962805922330095,3.7336299417475725,2.8404769514563104,4.72857772815534,2.8864442815533984,4.198250844660194,3.243196951456311,1.0,1.0
3.3765801262135913,3.641563145631068,3.32966759223301,3.8962319417475726,2.9354739514563106,4.96146772815534,2.9038642815533984,4.366846844660194,3.258433951456311,1.0,1.0
3.3465811262135916,3.6723371456310683,3.36672759223301,4.105013941747573,2.917499951456311,5.08387072815534,2.881718281553398,4.461432844660194,3.216045951456311,1.0,1.0
3.040444126213592,3.336383145631068,3.0324735922330097,3.8213369417475724,2.5957609514563105,4.77492072815534,2.704798281553398,4.265863844660194,3.026056951456311,1.0,1.0
2.984810126213592,3.3074321456310685,3.0417405922330096,3.6641759417475726,2.5284909514563108,4.68283772815534,2.746134281553398,4.321584844660194,3.113253951456311,1.0,1.0
3.1123561262135917,3.4814531456310682,3.2800155922330094,3.726139941747573,2.7271199514563107,4.96949572815534,2.970994281553398,4.541548844660194,3.367337951456311,1.0,1.0
3.187817126213592,3.5367731456310683,3.4386795922330093,3.6276199417475725,2.791839951456311,5.10489772815534,3.0103562815533986,4.498318844660194,3.4357609514563108,1.0,1.0
3.109914126213592,3.401426145631068,3.35197059223301,3.3286689417475723,2.6354389514563104,4.9510227281553405,2.7849242815533986,4.347714844660194,3.2714379514563108,1.0,1.0
2.9863401262135922,3.3811321456310686,3.3382685922330095,3.1452759417475726,2.614504951456311,4.94379972815534,2.6917162815533984,4.238424844660194,3.200243951456311,1.0,1.0
3.075586126213592,3.4179281456310684,3.32493059223301,3.2799049417475725,2.7202699514563107,4.95868472815534,2.725204281553398,4.152696844660194,3.237537951456311,1.0,1.0
3.206593126213592,3.4020311456310686,3.2337535922330094,3.4259739417475727,2.766100951456311,4.80336772815534,2.8075022815533983,4.059748844660194,3.256038951456311,1.0,1.0
3.015183126213592,3.177003145631068,3.05462259223301,3.244930941747573,2.5333509514563106,4.578882728155341,2.574714281553398,3.834431844660194,2.992591951456311,1.0,1.0
2.801358126213592,2.962227145631068,2.78645659223301,3.1299929417475725,2.2423759514563106,4.46812172815534,2.2260572815533983,3.540999844660194,2.6883249514563112,1.0,1.0
2.880188126213592,3.1732091456310685,3.0256795922330095,3.376525941747573,2.3685539514563105,4.67017272815534,2.3362492815533984,3.7745468446601937,2.857367951456311,1.0,1.0
2.931697126213592,3.3927261456310687,3.2878595922330103,3.4138149417475727,2.5633559514563107,4.72781072815534,2.459811281553398,3.8073528446601936,2.9963159514563107,1.0,1.0
2.9150941262135923,3.368156145631068,3.31340659223301,3.3340449417475724,2.618937951456311,4.7534707281553406,2.479179281553398,3.707871844660194,3.0735719514563105,1.0,1.0
2.992427126213592,3.3802371456310683,3.3911395922330096,3.453123941747573,2.6022799514563104,4.80138572815534,2.521803281553398,3.6941118446601937,3.0843009514563113,1.0,1.0
3.2808301262135915,3.707282145631068,3.7568505922330098,3.769937941747573,2.904104951456311,4.91423972815534,2.7886402815533984,3.851119844660194,3.329447951456311,1.0,1.0
3.490453126213592,4.044183145631068,4.063454592233009,3.8904919417475723,3.1679409514563104,5.06623572815534,3.0479802815533983,4.115249844660195,3.510116951456311,1.0,1.0
3.7222321262135916,4.254045145631069,4.25829459223301,4.028652941747573,3.2970189514563106,5.302048728155341,3.1719962815533984,4.151588844660194,3.6786219514563108,1.0,1.0
3.8095771262135916,4.346581145631069,4.41259059223301,3.9895239417475725,3.3081149514563104,5.300610728155339,3.2288272815533983,4.024749844660195,3.8228269514563107,1.0,1.0
4.076325126213592,4.608219145631068,4.73178059223301,4.042528941747573,3.566992951456311,5.48528872815534,3.493425281553398,4.118861844660194,4.071915951456311,1.0,1.0
4.3335511262135915,4.835957145631068,4.9039965922330095,4.192844941747573,3.881029951456311,5.60964872815534,3.748588281553398,4.254249844660194,4.24920795145631,1.0,1.0
4.433464126213592,4.8593591456310685,4.864648592233009,4.217986941747572,3.9499909514563107,5.41454472815534,3.7322222815533985,4.121983844660194,4.22174495145631,1.0,1.0
4.405731126213592,4.8996381456310685,4.85606759223301,4.234862941747573,3.863732951456311,5.397088728155341,3.675088281553398,4.141597844660194,4.147792951456311,1.0,1.0
4.432800126213592,4.979569145631069,4.81773859223301,4.364024941747573,3.802656951456311,5.46373672815534,3.6768692815533983,4.163505844660194,4.144304951456311,1.0,1.0
4.642661126213592,5.307816145631068,5.097976592233009,4.846075941747572,3.995455951456311,5.67826372815534,3.9228252815533984,4.401129844660194,4.391503951456311,1.0,1.0
4.635260126213592,5.295824145631068,5.10839959223301,4.855772941747572,3.918735951456311,5.63497172815534,3.8172882815533984,4.434219844660194,4.288538951456311,1.0,1.0
4.452551126213592,5.0345881456310675,4.896300592233009,4.680386941747573,3.6288419514563106,5.44283172815534,3.5014622815533984,4.223385844660195,4.04899995145631,1.0,1.0
4.208778126213592,4.808891145631068,4.61110359223301,4.618966941747573,3.3525549514563107,5.274384728155339,3.2601142815533986,4.061950844660194,3.7691939514563106,1.0,1.0
3.952609126213592,4.523606145631068,4.35456859223301,4.406197941747573,3.0887079514563105,5.10338672815534,3.0742122815533985,3.8652288446601943,3.465553951456311,1.0,1.0
4.053823126213592,4.484179145631068,4.41245859223301,4.356643941747572,2.998131951456311,5.11285872815534,2.903418281553398,3.847881844660194,3.399039951456311,1.0,1.0
4.152572126213592,4.526180145631068,4.397569592233009,4.486139941747573,2.9826599514563106,5.32446372815534,2.832708281553398,3.997842844660194,3.423508951456311,1.0,1.0
4.118369126213592,4.4777441456310685,4.35381959223301,4.566311941747573,3.0206469514563103,5.37954072815534,2.943312281553398,4.116745844660194,3.4918689514563113,1.0,1.0
3.867695126213592,4.347482145631068,4.29750859223301,4.250314941747573,2.7547289514563107,5.22883872815534,2.712620281553398,3.982073844660194,3.332114951456311,1.0,1.0
3.6292141262135917,4.334352145631068,4.35722459223301,4.020478941747573,2.5869079514563107,5.11741572815534,2.537936281553398,3.819523844660194,3.276068951456311,1.0,1.0
3.8474091262135914,4.664936145631069,4.72670859223301,4.361480941747573,2.976136951456311,5.48719472815534,2.9075552815533983,4.220270844660194,3.6768169514563107,1.0,1.0
4.088021126213592,4.909009145631068,4.98170459223301,4.683856941747573,3.269263951456311,5.764505728155339,3.2155742815533985,4.6141868446601935,3.9788279514563114,1.0,1.0
4.283117126213591,5.147438145631068,5.31122859223301,4.903166941747573,3.565219951456311,5.96545272815534,3.4759592815533984,4.901916844660194,4.293087951456311,1.0,1.0
4.287926126213592,5.185536145631069,5.3974705922330095,4.943637941747572,3.583180951456311,6.00318972815534,3.5432522815533987,5.057348844660194,4.334900951456311,1.0,1.0
4.054669126213592,4.941248145631068,5.07982159223301,4.620316941747572,3.317807951456311,5.77075872815534,3.372976281553398,4.792430844660194,4.0813569514563115,1.0,1.0
4.086953126213592,4.983926145631068,5.02762759223301,4.676696941747573,3.3452569514563106,5.798669728155341,3.4838912815533987,4.822483844660194,4.136946951456311,1.0,1.0
4.530234126213592,5.424951145631067,5.48242759223301,5.037760941747573,3.950857951456311,6.255335728155339,4.019762281553398,5.162154844660194,4.641858951456311,1.0,1.0
4.821911126213592,5.692926145631068,5.79888759223301,5.245766941747572,4.449042951456311,6.577052728155341,4.461930281553398,5.385951844660195,4.978603951456311,1.0,1.0
4.753460126213592,5.6641311456310675,5.76676559223301,5.348699941747572,4.495557951456311,6.60549572815534,4.4968622815533985,5.540070844660193,4.9217519514563115,1.0,1.0
4.831982126213592,5.752809145631069,5.78326759223301,5.5650819417475725,4.5323079514563105,6.679746728155339,4.540978281553398,5.732890844660194,4.937496951456311,1.0,1.0
5.057159126213592,5.938424145631068,5.93890259223301,5.869920941747573,4.57682895145631,7.00894772815534,4.685712281553398,6.0322938446601935,5.142237951456312,1.0,1.0
5.135629126213591,5.9351391456310685,5.88896559223301,5.966783941747573,4.433317951456311,7.11403172815534,4.614004281553398,6.040790844660194,5.029793951456311,1.0,1.0
5.165769126213592,6.022549145631068,6.00642459223301,5.907854941747572,4.6081959514563104,7.25056872815534,4.736075281553398,6.083726844660195,5.095651951456311,1.0,1.0
5.188050126213592,6.061403145631068,6.00423459223301,5.827063941747573,4.792796951456311,7.23219872815534,4.878919281553398,6.226021844660194,5.241713951456311,1.0,1.0
5.070968126213591,5.882745145631068,5.7973215922330095,5.669519941747573,4.719752951456311,7.105603728155341,4.6876222815533986,5.953491844660195,5.122353951456311,1.0,1.0
4.734846126213592,5.467210145631068,5.36511459223301,5.390248941747573,4.429238951456311,6.85811872815534,4.302095281553399,5.612055844660194,4.773047951456311,1.0,1.0
4.500090126213592,5.226062145631069,5.09034459223301,5.1280199417475725,4.270766951456311,6.57109972815534,4.169765281553398,5.500833844660194,4.5954949514563115,1.0,1.0
4.6949531262135915,5.358694145631068,5.315194592233009,5.340264941747574,4.3546569514563105,6.788142728155339,4.332922281553398,5.657486844660195,4.752851951456311,1.0,1.0
4.867666126213592,5.499322145631068,5.50749459223301,5.501693941747573,4.4810929514563105,6.954991728155339,4.487632281553398,5.841776844660194,4.936874951456311,1.0,1.0
4.737708126213592,5.487230145631068,5.47518659223301,5.401306941747573,4.443261951456311,6.820421728155339,4.593076281553398,5.791288844660194,4.940604951456311,1.0,1.0
4.6600681262135915,5.382751145631069,5.37812159223301,5.280388941747573,4.341955951456311,6.71427472815534,4.496015281553398,5.572403844660194,4.866011951456311,1.0,1.0
4.663766126213591,5.315703145631069,5.27136559223301,5.252228941747572,4.188910951456311,6.66970472815534,4.386916281553398,5.463965844660193,4.712230951456311,1.0,1.0
4.694581126213592,5.336003145631069,5.30789959223301,5.359513941747573,4.142588951456311,6.582238728155341,4.3565932815533985,5.417516844660193,4.662435951456311,1.0,1.0
4.646758126213592,5.277666145631068,5.27863859223301,5.513022941747574,4.11415595145631,6.496789728155339,4.231026281553398,5.283160844660195,4.597770951456311,1.0,1.0
4.750291126213592,5.342823145631069,5.42506559223301,5.748007941747573,4.3147649514563104,6.774479728155339,4.294745281553398,5.4936478446601935,4.708402951456311,1.0,1.0
4.900428126213592,5.503003145631068,5.45032359223301,5.928959941747572,4.431541951456311,7.03908272815534,4.361685281553398,5.732613844660194,4.766207951456312,1.0,1.0
4.933894126213592,5.461930145631069,5.283405592233009,5.939658941747573,4.32923295145631,6.89489072815534,4.255469281553399,5.679194844660194,4.708213951456312,1.0,1.0
4.811846126213592,5.302413145631068,5.20828259223301,5.706758941747572,4.154227951456311,6.72236172815534,4.143978281553398,5.678374844660194,4.602226951456311,1.0,1.0
4.6449641262135914,5.194907145631069,5.11668459223301,5.531604941747572,4.06096195145631,6.52182472815534,4.068653281553399,5.635019844660194,4.518990951456312,1.0,1.0
4.542544126213592,5.113745145631069,5.06769259223301,5.533985941747573,3.978212951456311,6.507410728155341,4.0057582815533985,5.7097548446601945,4.573201951456311,1.0,1.0
4.604027126213592,5.095300145631068,5.00510559223301,5.597166941747573,3.866055951456311,6.69125772815534,3.9122492815533985,5.710045844660194,4.518269951456311,1.0,1.0
4.636970126213592,5.0815911456310685,4.88141959223301,5.575706941747573,3.8494489514563104,6.72304272815534,3.8949352815533977,5.528996844660194,4.496335951456311,1.0,1.0
4.315839126213592,4.909186145631068,4.8066495922330095,5.448793941747573,3.735144951456311,6.49316272815534,3.8642292815533983,5.254678844660194,4.398678951456311,1.0,1.0
4.277471126213592,4.949146145631068,4.89815859223301,5.506459941747574,3.671705951456311,6.57745872815534,3.8460712815533986,5.498816844660194,4.393129951456311,1.0,1.0
4.172592126213592,4.775952145631068,4.85701559223301,5.508159941747573,3.5891269514563104,6.51579172815534,3.7566212815533984,5.588626844660195,4.375271951456311,1.0,1.0
3.952449126213592,4.5279171456310685,4.60509059223301,5.323409941747573,3.414909951456311,6.25696072815534,3.584928281553398,5.369899844660194,4.2254889514563105,1.0,1.0
3.845423126213592,4.454326145631068,4.477138592233009,5.042741941747574,3.2745069514563108,6.13908672815534,3.4593442815533977,5.211036844660194,4.084484951456311,1.0,1.0
4.102919126213592,4.612006145631068,4.67022859223301,4.993227941747573,3.3382529514563104,6.28716272815534,3.4758582815533985,5.2531738446601945,4.161829951456311,1.0,1.0
4.176100126213592,4.704533145631069,4.553084592233009,5.011295941747573,3.302061951456311,6.2550017281553405,3.4317472815533985,5.083893844660194,4.086010951456311,1.0,1.0
4.284300126213592,4.800917145631068,4.56599459223301,5.175672941747573,3.398717951456311,6.212749728155341,3.5050992815533983,5.082997844660195,4.046199951456311,1.0,1.0
4.574194126213592,5.067578145631068,4.93865559223301,5.434918941747572,3.793366951456311,6.31552072815534,3.823023281553398,5.341040844660195,4.358409951456311,1.0,1.0
4.653775126213592,5.240686145631068,5.143306592233009,5.6508899417475735,4.087648951456311,6.4895287281553395,4.0801852815533985,5.512769844660194,4.548035951456311,1.0,1.0
4.498428126213592,5.224945145631068,5.05946159223301,5.636359941747572,4.112228951456311,6.421426728155341,4.099426281553399,5.4720058446601945,4.509468951456311,1.0,1.0
4.731459126213592,5.5262711456310685,5.366458592233009,5.772268941747573,4.386771951456311,6.61775472815534,4.3912932815533985,5.615092844660194,4.769213951456311,1.0,1.0
4.9299831262135925,5.714416145631068,5.63141659223301,5.8500869417475725,4.61275795145631,6.832246728155341,4.593191281553398,5.694584844660194,4.9774009514563105,1.0,1.0
4.973694126213592,5.728235145631069,5.61846259223301,5.925571941747572,4.764817951456311,6.86192372815534,4.693011281553399,5.751020844660194,5.019152951456311,1.0,1.0
5.0340901262135915,5.699661145631068,5.583596592233009,6.043360941747572,4.772251951456311,6.83342172815534,4.766531281553398,5.819976844660195,5.017589951456311,1.0,1.0
4.874814126213592,5.534587145631068,5.41101059223301,5.793599941747573,4.623723951456311,6.55936372815534,4.570217281553398,5.594204844660194,4.781693951456311,1.0,1.0
4.868465126213592,5.583492145631068,5.34700159223301,5.719352941747572,4.675870951456311,6.52757772815534,4.522079281553399,5.541231844660194,4.665594951456311,1.0,1.0
5.0989801262135925,5.777128145631068,5.52664959223301,5.9612599417475725,4.868690951456311,6.74422372815534,4.745166281553399,5.635718844660193,4.832868951456311,1.0,1.0
5.234930126213592,5.894128145631068,5.735443592233009,6.099455941747573,5.061380951456311,6.95788872815534,4.980654281553398,5.753310844660194,5.05622395145631,1.0,1.0
5.284878126213592,5.895910145631068,5.836001592233009,6.242980941747573,5.141691951456311,6.97083272815534,5.060533281553399,5.864767844660194,5.134556951456311,1.0,1.0
5.320671126213592,5.883470145631069,5.778261592233009,6.3399199417475725,5.267397951456311,6.918727728155339,5.111233281553399,5.924217844660194,5.161333951456311,1.0,1.0
5.020472126213592,5.549971145631068,5.324351592233009,5.870583941747572,5.001986951456311,6.5988407281553405,4.739136281553399,5.576459844660194,4.746308951456311,1.0,1.0
4.862953126213592,5.424932145631068,5.165261592233009,5.732097941747574,4.73498595145631,6.59241972815534,4.495493281553398,5.3660358446601935,4.536416951456311,1.0,1.0
4.8541391262135924,5.366067145631068,5.0762525922330095,5.730834941747573,4.446064951456311,6.59418472815534,4.327679281553398,5.295154844660194,4.424797951456311,1.0,1.0
4.797087126213592,5.314175145631068,5.036294592233009,5.618258941747573,4.336976951456311,6.58258472815534,4.226948281553398,5.380430844660194,4.381661951456311,1.0,1.0
4.738922126213592,5.381180145631069,5.02761559223301,5.856400941747573,4.265190951456311,6.78834772815534,4.2570162815533985,5.674050844660194,4.385700951456311,1.0,1.0
4.625005126213591,5.326335145631068,4.88000459223301,5.877783941747573,4.193944951456311,6.72186872815534,4.176210281553399,5.736541844660194,4.2901689514563115,1.0,1.0
4.645642126213592,5.259055145631069,4.906943592233009,5.796502941747573,4.2560969514563105,6.665744728155341,4.1120262815533986,5.684622844660193,4.180900951456311,1.0,1.0
4.620296126213592,5.124422145631069,4.74514859223301,5.672786941747574,4.1780419514563105,6.61546872815534,3.979157281553398,5.656364844660194,4.022677951456311,1.0,1.0
4.638412126213592,5.190265145631068,4.701937592233009,5.693009941747573,4.309486951456311,6.65645272815534,4.089840281553398,5.658309844660194,4.143742951456311,1.0,1.0
4.511154126213592,5.1092951456310685,4.627193592233009,5.667138941747574,4.15780895145631,6.677101728155339,4.003724281553398,5.710007844660193,4.052801951456311,1.0,1.0
4.393398126213592,4.915211145631068,4.412586592233009,5.618750941747573,3.8777969514563106,6.66841172815534,3.8482392815533983,5.722562844660194,3.897721951456311,1.0,1.0
4.223757126213592,4.672684145631068,4.21875559223301,5.515598941747572,3.7470799514563105,6.57781872815534,3.730685281553398,5.656393844660195,3.819152951456311,1.0,1.0
4.123460126213592,4.568151145631068,4.21114859223301,5.310137941747573,3.7028979514563103,6.45289172815534,3.7358772815533983,5.732153844660194,3.9595859514563108,1.0,1.0
4.054047126213592,4.537500145631069,4.35636659223301,5.1907179417475735,3.7197999514563107,6.454221728155341,3.832045281553398,5.935950844660194,4.092606951456311,1.0,1.0
3.8586391262135917,4.302443145631068,4.252860592233009,4.929951941747572,3.4573429514563103,6.276177728155339,3.6670822815533985,5.833352844660194,3.978513951456311,1.0,1.0
3.656168126213592,4.140499145631068,4.08632759223301,4.782665941747573,3.1970519514563107,6.03553372815534,3.5398502815533983,5.751765844660195,3.852363951456311,1.0,1.0
3.5075601262135923,4.004643145631068,3.9917565922330094,4.638151941747573,3.0629369514563107,5.94145072815534,3.440777281553398,5.631581844660194,3.754755951456311,1.0,1.0
3.5835741262135916,3.9724681456310678,4.02738359223301,4.581171941747573,3.1574619514563107,6.108456728155341,3.407071281553398,5.685097844660194,3.699955951456311,1.0,1.0
3.652058126213592,4.156002145631068,4.238811592233009,4.610739941747573,3.3427279514563106,6.28905672815534,3.501141281553398,5.843195844660194,3.8260919514563114,1.0,1.0
3.734351126213592,4.354109145631068,4.56775259223301,4.5489169417475726,3.461679951456311,6.32955972815534,3.6984202815533984,5.973024844660195,4.03972895145631,1.0,1.0
3.753938126213592,4.3936211456310685,4.60856559223301,4.444210941747573,3.409800951456311,6.19477672815534,3.781223281553398,5.900232844660194,4.146576951456311,1.0,1.0
3.741330126213592,4.413867145631068,4.59585759223301,4.519485941747573,3.487533951456311,6.19773472815534,3.9055692815533987,5.933731844660194,4.254091951456311,1.0,1.0
3.734225126213592,4.461284145631068,4.688808592233009,4.661788941747573,3.6586369514563106,6.23234772815534,3.970750281553398,5.949193844660194,4.29450695145631,1.0,1.0
3.788317126213592,4.575385145631069,4.64550859223301,4.629424941747573,3.8174899514563108,6.12930072815534,4.063914281553398,5.947959844660193,4.27201895145631,1.0,1.0
3.809465126213592,4.547750145631068,4.54188459223301,4.569581941747573,3.8772799514563108,6.1118667281553405,4.040591281553398,5.877580844660194,4.226640951456311,1.0,1.0
3.725854126213592,4.408641145631068,4.39466359223301,4.412572941747573,3.7732189514563106,5.936929728155341,3.890680281553398,5.625178844660194,4.127767951456311,1.0,1.0
3.764746126213592,4.482093145631068,4.4811425922330095,4.412494941747573,3.8351899514563104,5.87254972815534,3.879259281553398,5.512287844660194,4.08040195145631,1.0,1.0
3.890974126213592,4.647018145631068,4.56438159223301,4.637490941747573,3.907459951456311,5.99251672815534,3.8992942815533977,5.628208844660194,4.094747951456311,1.0,1.0
3.763392126213592,4.614422145631068,4.45987059223301,4.513064941747573,3.84059295145631,5.8464007281553405,3.8263622815533984,5.498490844660194,3.979977951456311,1.0,1.0
3.482697126213592,4.413876145631068,4.2615345922330095,4.215606941747573,3.6708249514563107,5.4484677281553395,3.547121281553398,5.105077844660194,3.6701369514563114,1.0,1.0
3.4239681262135924,4.237793145631068,4.1159405922330095,4.079868941747573,3.4597829514563108,5.22662072815534,3.3204332815533983,4.868172844660194,3.469356951456311,1.0,1.0
3.4323101262135918,3.999896145631068,4.01302059223301,4.060276941747573,3.26661695145631,5.227509728155339,3.2521532815533982,4.7933758446601935,3.4475439514563107,1.0,1.0
3.5618671262135924,4.1203011456310685,4.05272659223301,4.283877941747573,3.2572009514563103,5.422490728155339,3.329570281553398,4.901216844660194,3.555388951456311,1.0,1.0
3.961718126213592,4.5351161456310685,4.36725159223301,4.603027941747573,3.6164929514563107,5.73097172815534,3.657264281553398,5.091381844660194,3.8328449514563108,1.0,1.0
4.2055141262135916,4.762612145631068,4.591901592233009,4.949346941747573,3.8681269514563104,6.04587372815534,3.9144062815533984,5.319430844660194,4.073950951456311,1.0,1.0
4.175112126213592,4.742292145631068,4.50102759223301,5.034517941747573,3.9265359514563105,6.12611072815534,3.8826062815533984,5.329031844660194,4.1229759514563105,1.0,1.0
4.071116126213592,4.575089145631068,4.33994859223301,4.971138941747572,3.7491499514563107,5.96582572815534,3.6348682815533984,5.242190844660193,3.987195951456311,1.0,1.0
4.045482126213592,4.521440145631068,4.3243465922330095,4.844375941747573,3.6341229514563107,5.8117567281553395,3.497603281553398,5.096257844660194,3.9852029514563103,1.0,1.0
4.093488126213592,4.621348145631068,4.432157592233009,4.842252941747573,3.8535519514563106,5.80565272815534,3.6909372815533983,5.127312844660193,4.178700951456311,1.0,1.0
4.059002126213592,4.629787145631068,4.40115259223301,4.814025941747572,3.982627951456311,5.84668772815534,3.8548602815533983,5.018532844660195,4.192399951456311,1.0,1.0
4.064864126213592,4.660735145631068,4.40515459223301,4.745364941747573,3.965912951456311,5.66594972815534,3.951001281553398,4.989382844660194,4.217735951456311,1.0,1.0
4.112124126213592,4.747424145631069,4.510420592233009,4.646613941747573,4.078455951456311,5.55944872815534,4.012364281553398,5.011729844660194,4.31938295145631,1.0,1.0
4.277503126213592,4.998585145631068,4.83704459223301,4.687696941747572,4.29779795145631,5.566740728155341,4.200599281553398,5.088290844660194,4.477932951456311,1.0,1.0
4.1084731262135925,4.883125145631068,4.64204459223301,4.447567941747573,4.133402951456311,5.33742972815534,4.1219762815533985,4.925457844660194,4.334437951456311,1.0,1.0
4.008945126213592,4.655512145631068,4.37665559223301,4.173644941747573,3.9865189514563104,5.07666972815534,3.9158352815533983,4.6044848446601945,4.142359951456311,1.0,1.0
4.312476126213592,4.899862145631069,4.55119559223301,4.402831941747573,4.302115951456311,5.24548172815534,4.1239072815533975,4.636668844660194,4.382439951456311,1.0,1.0
4.289352126213592,4.8716351456310685,4.46744459223301,4.427996941747573,4.233806951456311,5.21595372815534,4.134510281553398,4.468702844660194,4.286063951456311,1.0,1.0
3.852063126213592,4.473967145631068,4.08574159223301,4.210985941747573,3.7242339514563105,4.74930772815534,3.6842602815533985,4.057805844660194,3.7564979514563106,1.0,1.0
3.556541126213592,4.146110145631068,3.8460485922330094,3.959632941747573,3.333566951456311,4.59725172815534,3.368897281553398,3.897649844660194,3.3584739514563107,1.0,1.0
3.561261126213592,4.053008145631068,3.77272159223301,3.988840941747573,3.2542999514563102,4.63964672815534,3.309611281553398,3.928376844660194,3.2581669514563107,1.0,1.0
3.688374126213592,4.186770145631069,3.8440775922330097,4.208486941747573,3.416568951456311,4.66755172815534,3.414363281553398,4.032693844660194,3.358536951456311,1.0,1.0
3.752984126213592,4.213365145631069,3.6507265922330094,4.1497769417475725,3.426680951456311,4.62800372815534,3.295820281553398,4.085311844660194,3.261220951456311,1.0,1.0
3.9915571262135923,4.416919145631068,3.7987065922330094,4.353195941747573,3.6230189514563107,4.9586787281553395,3.499569281553398,4.495047844660194,3.426008951456311,1.0,1.0
4.154123126213592,4.544188145631068,4.059175592233009,4.673467941747573,3.6611149514563106,5.35439972815534,3.5212692815533986,4.889939844660194,3.558617951456311,1.0,1.0
4.186074126213592,4.5439551456310685,4.18685259223301,4.840531941747573,3.7532639514563106,5.51396072815534,3.5271772815533984,5.009995844660194,3.569258951456311,1.0,1.0
4.413883126213592,4.8094021456310685,4.33604259223301,4.958811941747573,3.9672749514563104,5.587746728155341,3.7927562815533986,5.184329844660194,3.7618259514563106,1.0,1.0
4.4855131262135925,4.9259761456310684,4.31608959223301,5.011462941747572,4.105891951456311,5.659062728155339,4.002947281553398,5.331403844660194,3.9075169514563113,1.0,1.0
4.237162126213592,4.611480145631068,4.03823659223301,4.723575941747573,3.7426879514563107,5.4028447281553404,3.7536062815533984,5.069755844660194,3.718110951456311,1.0,1.0
4.120311126213592,4.476934145631068,3.97091559223301,4.596797941747573,3.5527819514563106,5.25289272815534,3.5721362815533984,4.980357844660194,3.5663279514563104,1.0,1.0
4.1132961262135925,4.557275145631069,3.97802259223301,4.707160941747573,3.592433951456311,5.311689728155341,3.502842281553398,5.0347408446601944,3.539086951456311,1.0,1.0
4.398767126213592,4.881898145631069,4.23684059223301,5.109957941747573,3.8610599514563106,5.72451672815534,3.6884252815533984,5.255705844660193,3.729531951456311,1.0,1.0
4.648045126213591,5.117165145631068,4.5504985922330095,5.281284941747573,4.140087951456311,6.135425728155339,3.9916222815533984,5.454610844660194,3.9950639514563107,1.0,1.0
4.473334126213592,5.029628145631068,4.54857859223301,5.136549941747572,4.12587095145631,6.049520728155341,3.9515772815533983,5.305970844660194,3.9609049514563104,1.0,1.0
4.470310126213592,5.118021145631069,4.61300059223301,5.014391941747573,4.083811951456311,6.10305072815534,3.8563892815533984,5.335734844660194,3.889663951456311,1.0,1.0
4.777046126213592,5.421167145631069,4.79411859223301,5.330243941747573,4.307981951456311,6.4890907281553405,4.069458281553398,5.656359844660194,4.131621951456311,1.0,1.0
4.825116126213592,5.534967145631068,4.965307592233009,5.474577941747572,4.394569951456311,6.5258307281553405,4.162318281553398,5.733801844660194,4.205028951456311,1.0,1.0
4.724393126213592,5.469845145631068,4.92565359223301,5.372409941747573,4.327558951456311,6.464470728155341,4.001226281553398,5.706851844660195,4.054359951456311,1.0,1.0
4.715510126213592,5.442239145631069,4.89500159223301,5.407328941747572,4.233178951456311,6.34771472815534,3.9701852815533982,5.725234844660195,3.918295951456311,1.0,1.0
4.797365126213592,5.579508145631069,4.97643359223301,5.553274941747572,4.189276951456311,6.329991728155339,4.001946281553399,5.829416844660194,3.9064069514563107,1.0,1.0
4.838417126213592,5.682130145631069,5.005802592233009,5.527020941747573,4.292079951456311,6.26119472815534,3.9732562815533985,5.816138844660194,3.926303951456311,1.0,1.0
4.938159126213592,5.753435145631069,5.048138592233009,5.5438399417475726,4.3779709514563105,6.208777728155341,4.042182281553398,5.789545844660195,4.029798951456311,1.0,1.0
4.968033126213592,5.734090145631069,5.12022359223301,5.504405941747573,4.402557951456311,6.15075372815534,4.0681882815533985,5.827014844660194,4.077786951456311,1.0,1.0
5.139141126213592,5.938473145631068,5.23884659223301,5.828580941747573,4.631095951456311,6.31888872815534,4.212101281553398,5.861214844660194,4.190732951456311,1.0,1.0
5.417532126213592,6.211577145631069,5.37645459223301,6.1906789417475725,4.791495951456311,6.569429728155341,4.365373281553398,5.941749844660194,4.324543951456311,1.0,1.0
5.416158126213592,6.120581145631069,5.32459359223301,6.202886941747574,4.713545951456311,6.464280728155341,4.270825281553398,5.868762844660194,4.212541951456311,1.0,1.0
5.165205126213592,5.848851145631069,5.085655592233009,6.057127941747573,4.430521951456311,6.24459572815534,4.054462281553398,5.636325844660194,3.9412009514563113,1.0,1.0
5.106203126213591,5.776209145631068,5.03043559223301,6.086974941747573,4.453741951456311,6.2865507281553406,4.061574281553399,5.705201844660194,3.9646679514563115,1.0,1.0
5.117108126213592,5.8554191456310685,5.1842615922330095,6.150776941747573,4.455432951456311,6.40136372815534,4.063056281553398,5.7826318446601945,4.036236951456312,1.0,1.0
5.161155126213592,5.962025145631068,5.365240592233009,6.2268349417475735,4.555084951456311,6.51506572815534,4.1540082815533985,5.929773844660194,4.176556951456311,1.0,1.0
5.129260126213592,5.965797145631068,5.43737659223301,6.140559941747573,4.522020951456311,6.450059728155341,4.1339482815533986,5.842981844660194,4.169148951456311,1.0,1.0
4.747286126213592,5.517405145631068,4.8942805922330095,5.752039941747573,4.083201951456311,6.02440372815534,3.676150281553398,5.308125844660194,3.633644951456311,1.0,1.0
4.6294091262135915,5.242049145631069,4.5350265922330095,5.516812941747573,3.821845951456311,5.5825107281553406,3.4294202815533983,4.958019844660194,3.3104829514563106,1.0,1.0
4.523976126213592,5.031722145631068,4.25546859223301,5.318956941747573,3.781713951456311,5.31911872815534,3.3395872815533982,4.702264844660195,3.1751939514563112,1.0,1.0
4.539647126213592,4.856586145631068,4.05187559223301,5.340280941747572,3.6624129514563104,5.34212072815534,3.1971392815533983,4.490603844660194,3.037007951456311,1.0,1.0
4.916425126213592,5.178623145631068,4.34673559223301,5.714051941747573,3.8216249514563105,5.66127272815534,3.4007052815533982,4.630338844660194,3.210197951456311,1.0,1.0
5.1488531262135915,5.434975145631069,4.59399459223301,5.8890129417475725,3.909111951456311,5.79276572815534,3.574632281553398,4.688883844660194,3.352515951456311,1.0,1.0
5.178252126213592,5.436110145631069,4.442277592233009,6.016989941747572,3.9464459514563113,5.69629772815534,3.563614281553398,4.551491844660194,3.3459179514563107,1.0,1.0
5.175192126213592,5.551509145631069,4.4333145922330095,6.160194941747573,4.101773951456311,5.70724472815534,3.602921281553398,4.383360844660194,3.361872951456311,1.0,1.0
5.264236126213592,5.747254145631068,4.56770459223301,6.154236941747573,4.34654595145631,5.93367672815534,3.829626281553398,4.573671844660194,3.564887951456311,1.0,1.0
5.267139126213592,5.8431941456310685,4.68821159223301,6.180696941747573,4.540334951456311,6.03515272815534,4.124495281553398,4.744215844660194,3.848893951456311,1.0,1.0
5.093202126213592,5.642289145631069,4.476068592233009,5.937423941747572,4.401807951456311,5.73456772815534,3.9968002815533983,4.594659844660194,3.754435951456311,1.0,1.0
4.834595126213592,5.269636145631068,4.08537259223301,5.584782941747573,4.06779495145631,5.489027728155341,3.681305281553398,4.245088844660193,3.5706439514563106,1.0,1.0
4.746298126213592,5.0611111456310685,3.89146559223301,5.395713941747573,3.849035951456311,5.36883872815534,3.494622281553398,4.088379844660194,3.4220449514563107,1.0,1.0
4.915083126213592,5.194441145631068,4.109419592233009,5.595963941747573,4.100789951456311,5.4953497281553405,3.7659072815533983,4.313469844660194,3.715021951456311,1.0,1.0
5.037856126213592,5.339661145631068,4.224557592233009,5.729811941747573,4.301841951456311,5.61360972815534,4.069544281553398,4.512454844660194,3.9623079514563107,1.0,1.0
5.161444126213592,5.518928145631069,4.25077159223301,5.957171941747573,4.463362951456311,5.780175728155339,4.254516281553398,4.647711844660194,4.174874951456311,1.0,1.0
5.097821126213592,5.4259061456310675,4.13427959223301,5.9478909417475725,4.312498951456311,5.79292672815534,4.0958732815533985,4.706349844660195,4.151489951456311,1.0,1.0
4.635056126213592,4.930588145631068,3.7160565922330098,5.413256941747573,3.803536951456311,5.3799317281553405,3.581023281553398,4.317134844660194,3.7183319514563107,1.0,1.0
4.330891126213592,4.648230145631068,3.6113825922330096,5.075564941747573,3.4600529514563108,5.26544672815534,3.282013281553398,3.9911278446601943,3.470238951456311,1.0,1.0
4.330417126213592,4.6292031456310685,3.65850759223301,5.025743941747573,3.580667951456311,5.21501072815534,3.3619822815533986,3.940270844660194,3.497673951456311,1.0,1.0
4.398814126213591,4.631471145631068,3.59912659223301,4.968413941747573,3.6894209514563108,5.172513728155341,3.493342281553398,4.014907844660194,3.5684949514563105,1.0,1.0
4.3698651262135915,4.637523145631068,3.6920455922330095,5.002296941747573,3.663563951456311,5.17323172815534,3.585894281553398,4.2061398446601945,3.664702951456311,1.0,1.0
4.175370126213592,4.491413145631069,3.6219225922330094,4.8773339417475725,3.5386039514563112,5.07222672815534,3.486070281553398,4.216898844660194,3.6389199514563106,1.0,1.0
4.172181126213592,4.514899145631068,3.6662005922330096,4.926918941747573,3.5335589514563104,5.29355772815534,3.500484281553398,4.366363844660194,3.764294951456311,1.0,1.0
4.246391126213592,4.591422145631069,3.66910759223301,5.091821941747573,3.569908951456311,5.50765272815534,3.5366582815533985,4.496022844660194,3.899149951456311,1.0,1.0
4.223928126213592,4.433347145631068,3.3914055922330095,5.014834941747573,3.526337951456311,5.4616917281553405,3.418156281553398,4.4189608446601945,3.787494951456311,1.0,1.0
4.1913631262135915,4.391540145631068,3.4049985922330097,4.945689941747573,3.608880951456311,5.45124272815534,3.5040482815533984,4.391755844660194,3.9096929514563112,1.0,1.0
4.113014126213592,4.407869145631069,3.47858759223301,4.877489941747573,3.6663159514563106,5.50792772815534,3.621189281553398,4.417788844660194,4.017517951456311,1.0,1.0
4.149128126213592,4.5154181456310685,3.52209459223301,4.927577941747573,3.6332529514563108,5.52670972815534,3.6562512815533985,4.568747844660194,3.9925609514563107,1.0,1.0
4.157421126213592,4.624737145631069,3.6012285922330096,4.947035941747573,3.660636951456311,5.52663972815534,3.6339572815533985,4.694910844660194,4.012723951456311,1.0,1.0
4.3269371262135925,4.6851771456310685,3.7144195922330097,5.112714941747573,3.751279951456311,5.70790672815534,3.815222281553398,4.966135844660194,4.242125951456311,1.0,1.0
4.380125126213592,4.715187145631068,3.75765159223301,5.1941999417475735,3.665793951456311,5.7048477281553405,3.8450692815533984,5.033662844660194,4.291426951456311,1.0,1.0
4.090345126213593,4.487226145631069,3.5996045922330095,5.027422941747573,3.494253951456311,5.5448547281553395,3.6245802815533983,4.763360844660194,4.086984951456311,1.0,1.0
3.831531126213592,4.233377145631068,3.412581592233009,4.736050941747573,3.2924979514563106,5.334779728155341,3.448010281553398,4.738379844660194,3.9168819514563107,1.0,1.0
3.676922126213592,4.075734145631069,3.28706859223301,4.601225941747573,3.1591789514563104,5.1846727281553395,3.3151242815533983,4.714605844660194,3.786002951456311,1.0,1.0
3.486009126213592,3.906401145631068,3.1200195922330094,4.338099941747573,3.040968951456311,5.122042728155339,3.0863022815533983,4.595832844660194,3.573963951456311,1.0,1.0
3.3994931262135926,3.960220145631068,3.18492559223301,4.323326941747573,3.0504589514563105,5.11145572815534,3.1551822815533983,4.5038718446601935,3.561603951456311,1.0,1.0
3.4582911262135925,4.010444145631069,3.25240459223301,4.5021629417475735,3.2173949514563107,5.20249872815534,3.2187052815533987,4.588953844660193,3.462608951456311,1.0,1.0
3.630443126213592,4.133659145631069,3.39444159223301,4.7103959417475725,3.3149309514563106,5.38869272815534,3.2479452815533985,4.848147844660194,3.515653951456311,1.0,1.0
3.632138126213592,4.2628511456310685,3.62454359223301,4.730917941747573,3.325217951456311,5.518524728155341,3.300880281553398,4.842337844660194,3.584412951456311,1.0,1.0
3.5366521262135917,4.212845145631068,3.6387605922330097,4.571328941747573,3.246000951456311,5.3939107281553405,3.2665012815533983,4.635074844660195,3.476588951456311,1.0,1.0
3.523876126213592,4.219583145631068,3.6431085922330095,4.589070941747573,3.2349019514563104,5.33289672815534,3.2626102815533984,4.697227844660194,3.388560951456311,1.0,1.0
3.6815271262135916,4.328171145631068,3.7210025922330097,4.595502941747572,3.362503951456311,5.23593472815534,3.2567092815533982,4.6742978446601935,3.3439459514563112,1.0,1.0
3.890869126213592,4.456112145631068,3.8582955922330098,4.757960941747573,3.4955719514563106,5.31161172815534,3.2712372815533985,4.709130844660194,3.449530951456311,1.0,1.0
3.9874641262135917,4.548002145631068,3.9784165922330095,4.929462941747572,3.5628769514563112,5.41475172815534,3.3885742815533986,4.841196844660194,3.595858951456311,1.0,1.0
3.9166651262135916,4.444539145631068,3.6972755922330096,4.724148941747573,3.480602951456311,5.197240728155339,3.315827281553398,4.626742844660194,3.460616951456311,1.0,1.0
3.7239771262135917,4.2473531456310685,3.37066959223301,4.455359941747573,3.238876951456311,4.94457672815534,3.133395281553398,4.412531844660195,3.248410951456311,1.0,1.0
3.659338126213592,4.237079145631069,3.3981375922330095,4.585502941747573,3.1829709514563107,5.03984372815534,3.0319992815533983,4.555310844660195,3.2720959514563113,1.0,1.0
3.812346126213592,4.353400145631068,3.5186085922330097,4.866731941747573,3.274891951456311,5.34104072815534,3.057568281553398,4.816541844660194,3.4068189514563105,1.0,1.0
3.9453451262135917,4.426596145631068,3.4429715922330097,4.921384941747573,3.362134951456311,5.37417372815534,3.099513281553398,4.729780844660194,3.400536951456311,1.0,1.0
4.131289126213591,4.573402145631068,3.5111725922330095,5.067948941747573,3.507410951456311,5.3601827281553405,3.211349281553398,4.655968844660194,3.4526839514563106,1.0,1.0
4.244502126213592,4.683056145631068,3.5807815922330097,5.136349941747572,3.692596951456311,5.286214728155341,3.3141932815533983,4.702315844660194,3.5346629514563115,1.0,1.0
4.158841126213591,4.616496145631068,3.45084559223301,5.128664941747572,3.652248951456311,5.10627072815534,3.187104281553398,4.646319844660194,3.402571951456311,1.0,1.0
4.221420126213592,4.669166145631068,3.32531759223301,5.203098941747572,3.5186989514563107,5.08156372815534,3.142747281553398,4.660677844660194,3.336013951456311,1.0,1.0
4.275659126213592,4.7981361456310685,3.38701959223301,5.344631941747573,3.577909951456311,5.24290172815534,3.1726142815533986,4.7725788446601936,3.3783299514563105,1.0,1.0
4.189720126213592,4.6457301456310685,3.3234225922330096,5.363501941747573,3.544173951456311,5.1641367281553405,3.0826462815533984,4.751967844660195,3.316169951456311,1.0,1.0
4.360877126213592,4.635685145631069,3.4978625922330098,5.461760941747573,3.700636951456311,5.273908728155339,3.2855622815533985,4.868952844660194,3.520220951456311,1.0,1.0
4.508031126213592,4.755675145631068,3.60947459223301,5.569521941747573,3.7419189514563107,5.398551728155341,3.395402281553398,4.867203844660193,3.6748899514563105,1.0,1.0
4.603654126213592,4.9159431456310685,3.76097559223301,5.663509941747573,3.882468951456311,5.4243977281553395,3.6185832815533985,4.866320844660194,3.825213951456311,1.0,1.0
4.553915126213592,4.846744145631068,3.81084959223301,5.5863619417475725,4.086786951456311,5.423595728155339,3.7535582815533983,4.805182844660194,3.8701839514563106,1.0,1.0
4.352212126213592,4.662562145631068,3.7777455922330097,5.274919941747573,4.055059951456311,5.25943172815534,3.7334562815533987,4.710074844660194,3.8739839514563106,1.0,1.0
4.261491126213592,4.627569145631068,3.8563345922330097,5.173313941747573,3.9226069514563107,5.363002728155339,3.6702542815533987,4.804494844660194,3.9378059514563106,1.0,1.0
4.319757126213592,4.752455145631068,3.92138159223301,5.274429941747573,3.841609951456311,5.52948972815534,3.606576281553398,4.936193844660194,4.037994951456311,1.0,1.0
4.229760126213592,4.7220441456310684,3.92970859223301,5.246418941747573,3.7008409514563105,5.488057728155341,3.5358152815533983,4.948803844660194,4.044421951456311,1.0,1.0
4.127477126213592,4.579386145631068,3.93514259223301,5.190490941747573,3.6420999514563106,5.522504728155339,3.464638281553398,4.959084844660194,4.107275951456311,1.0,1.0
4.197192126213592,4.620774145631068,3.99728759223301,5.195651941747573,3.625021951456311,5.56403872815534,3.499479281553398,4.913945844660194,4.232475951456311,1.0,1.0
4.315831126213592,4.756575145631068,4.042889592233009,5.174076941747573,3.752252951456311,5.63075172815534,3.643514281553398,4.9520478446601945,4.293162951456311,1.0,1.0
4.227127126213592,4.588547145631068,3.9406605922330096,5.053935941747572,3.724721951456311,5.60363072815534,3.626601281553398,5.019148844660194,4.259764951456311,1.0,1.0
4.243028126213591,4.616408145631068,3.9862895922330095,5.082092941747573,3.7228599514563108,5.73341072815534,3.684602281553398,5.2531538446601935,4.353347951456311,1.0,1.0
4.195169126213592,4.517354145631068,3.8445435922330096,4.998833941747574,3.567669951456311,5.75024672815534,3.5647592815533984,5.195975844660194,4.225610951456311,1.0,1.0
4.169512126213593,4.519433145631068,3.8926045922330097,5.097063941747573,3.535590951456311,5.72529772815534,3.401340281553398,5.213041844660194,4.1014989514563105,1.0,1.0
4.253633126213591,4.709389145631068,4.055345592233009,5.341097941747574,3.717034951456311,5.82350372815534,3.451791281553398,5.367607844660194,4.129081951456311,1.0,1.0
4.540841126213592,4.907557145631069,4.073588592233009,5.472435941747573,3.829700951456311,5.88518372815534,3.6300072815533984,5.402730844660194,4.209730951456311,1.0,1.0
4.874578126213592,5.153981145631068,4.31248559223301,5.627037941747573,4.035939951456311,6.133492728155341,3.8628722815533987,5.496113844660194,4.4328899514563105,1.0,1.0
4.991094126213592,5.359160145631068,4.6369985922330095,5.711515941747573,4.1864099514563105,6.20918372815534,4.098519281553398,5.600821844660194,4.6919889514563105,1.0,1.0
4.851332126213593,5.308296145631068,4.69957059223301,5.498026941747572,4.160386951456311,6.0107717281553406,4.047979281553398,5.418890844660194,4.654470951456311,1.0,1.0
4.813181126213592,5.287028145631068,4.67691559223301,5.328995941747572,4.14827795145631,5.87735972815534,3.9317672815533986,5.171659844660194,4.562314951456311,1.0,1.0
4.749056126213592,5.285125145631068,4.70326759223301,5.248406941747573,4.170947951456311,5.86180972815534,3.866476281553398,5.2391178446601945,4.456275951456311,1.0,1.0
4.826037126213592,5.358242145631068,4.77127859223301,5.197505941747572,4.204317951456311,5.83012772815534,3.881175281553398,5.277439844660194,4.406188951456311,1.0,1.0
4.802993126213592,5.415507145631068,4.82283759223301,5.146108941747573,4.168988951456311,5.785334728155339,3.871112281553398,5.120805844660194,4.310332951456311,1.0,1.0
4.713930126213592,5.332084145631068,4.6236675922330095,4.954926941747573,4.0222999514563105,5.548632728155339,3.6866112815533985,4.784061844660194,4.042562951456311,1.0,1.0
4.694022126213592,5.248052145631068,4.42850759223301,4.885875941747573,4.04213695145631,5.3354907281553405,3.620949281553399,4.680095844660194,4.023292951456311,1.0,1.0
4.849909126213592,5.415685145631069,4.62378659223301,5.110244941747572,4.298903951456311,5.55249972815534,3.838349281553398,4.974063844660194,4.25700495145631,1.0,1.0
5.000260126213592,5.515634145631068,4.68995059223301,5.239248941747572,4.470380951456311,5.732282728155339,3.9880062815533983,5.104963844660194,4.302509951456312,1.0,1.0
4.894531126213592,5.443784145631068,4.48283259223301,5.138921941747572,4.443391951456311,5.53983472815534,3.8927032815533984,5.003746844660194,4.197785951456311,1.0,1.0
4.660161126213592,5.222365145631069,4.19960959223301,4.812586941747573,4.1847329514563105,5.34929172815534,3.730504281553398,4.766712844660194,4.014414951456311,1.0,1.0
4.489076126213592,5.156591145631069,4.06873659223301,4.739731941747573,4.049733951456311,5.417640728155339,3.630405281553398,4.532753844660194,3.921138951456311,1.0,1.0
4.323651126213592,4.987579145631068,4.027055592233009,4.663339941747573,3.938077951456311,5.269516728155341,3.4923882815533984,4.411604844660194,3.823955951456311,1.0,1.0
4.127898126213592,4.769699145631068,3.95124959223301,4.590884941747572,3.638380951456311,5.04740072815534,3.2706832815533984,4.329624844660194,3.678872951456311,1.0,1.0
3.9557951262135918,4.5947631456310685,3.75080159223301,4.707742941747572,3.4014889514563107,4.97805072815534,3.080256281553398,4.404035844660195,3.492533951456311,1.0,1.0
3.9031921262135914,4.469187145631069,3.50789859223301,4.764305941747573,3.2787319514563107,5.03275272815534,2.9011882815533983,4.371023844660194,3.324344951456311,1.0,1.0
3.8090341262135916,4.304348145631068,3.2903835922330096,4.680248941747573,3.1741219514563106,4.94745172815534,2.7500052815533986,4.138972844660194,3.185799951456311,1.0,1.0
3.639748126213592,4.101546145631069,2.9875415922330095,4.365255941747574,2.932151951456311,4.6789217281553395,2.5142262815533982,3.7216808446601943,2.8830669514563114,1.0,1.0
3.6829921262135916,4.105444145631068,3.0043595922330097,4.356016941747573,2.875143951456311,4.6564417281553405,2.4405822815533984,3.5552928446601944,2.7930099514563107,1.0,1.0
3.791935126213592,4.2509561456310685,3.0768835922330093,4.551643941747574,3.013167951456311,4.78406372815534,2.509622281553398,3.729886844660194,2.819707951456311,1.0,1.0
3.9451591262135923,4.444333145631068,3.14602159223301,4.766997941747573,3.162218951456311,4.96975672815534,2.6587022815533983,4.077013844660194,2.9544979514563106,1.0,1.0
4.087790126213592,4.5122281456310676,3.2079205922330094,4.916725941747573,3.284357951456311,5.16308272815534,2.7408692815533984,4.168990844660194,3.045823951456311,1.0,1.0
4.248702126213592,4.600777145631068,3.32754059223301,4.924404941747573,3.5092529514563107,5.245408728155341,2.9241682815533983,4.036747844660194,3.1733159514563107,1.0,1.0
4.385267126213592,4.664306145631068,3.39306359223301,4.859273941747573,3.6514659514563106,5.0803177281553396,3.017002281553398,3.923259844660194,3.235126951456311,1.0,1.0
4.2582351262135925,4.540217145631068,3.30764759223301,4.698857941747573,3.579684951456311,4.87964072815534,2.981242281553398,3.6570498446601944,3.1537579514563108,1.0,1.0
4.215793126213592,4.537475145631069,3.2659085922330098,4.520429941747572,3.565030951456311,4.92392272815534,3.005258281553398,3.582371844660194,3.153038951456311,1.0,1.0
4.449424126213591,4.873052145631068,3.58778059223301,4.797608941747573,3.929601951456311,5.24436872815534,3.3172712815533982,3.9682608446601937,3.461185951456311,1.0,1.0
4.525560126213592,4.833031145631068,3.55297759223301,4.903101941747573,4.061455951456311,5.2508007281553395,3.394125281553398,4.099901844660194,3.445846951456311,1.0,1.0
4.689456126213592,4.973424145631069,3.5264455922330096,5.031119941747573,4.2012219514563105,5.39954172815534,3.4495952815533983,4.147721844660194,3.416115951456311,1.0,1.0
4.890470126213592,5.217583145631068,3.7443725922330096,5.113007941747573,4.456217951456311,5.576942728155339,3.635429281553398,4.298241844660194,3.570195951456311,1.0,1.0
4.8950341262135915,5.2500031456310685,3.95589859223301,5.207493941747573,4.659159951456311,5.64692172815534,3.784040281553398,4.491823844660194,3.6956889514563107,1.0,1.0
4.824931126213592,5.079655145631069,3.880432592233009,5.3239779417475726,4.578015951456311,5.626503728155339,3.6748852815533986,4.485430844660194,3.5470449514563107,1.0,1.0
4.739457126213591,4.946396145631068,3.8093335922330094,5.295509941747573,4.458595951456311,5.61413872815534,3.5471572815533983,4.341225844660194,3.405843951456311,1.0,1.0
4.366068126213592,4.577724145631069,3.4387285922330095,5.086991941747573,4.061337951456311,5.356203728155339,3.1847902815533984,4.099881844660194,3.0550079514563113,1.0,1.0
4.1355351262135915,4.362380145631068,3.1968475922330093,4.997608941747573,3.8627339514563106,5.254574728155339,2.943208281553398,3.9731928446601943,2.8549279514563106,1.0,1.0
4.307354126213592,4.548432145631068,3.38612159223301,5.015688941747573,3.8739119514563107,5.31615272815534,3.006694281553398,3.925968844660194,2.9162209514563107,1.0,1.0
4.467997126213592,4.679949145631068,3.4545005922330096,4.9372669417475725,3.888423951456311,5.2796627281553405,3.1286722815533983,3.841063844660194,3.0262819514563106,1.0,1.0
4.424898126213592,4.678501145631069,3.3854955922330094,4.985138941747573,3.9530739514563105,5.211987728155339,3.0917512815533983,3.804120844660194,3.027938951456311,1.0,1.0
4.315745126213592,4.608452145631068,3.2063325922330095,5.083284941747573,3.919267951456311,5.206466728155339,3.0512212815533983,3.7528028446601938,2.888986951456311,1.0,1.0
4.248360126213592,4.604037145631069,3.1475195922330097,5.072309941747573,3.887119951456311,5.20050272815534,3.043752281553398,3.6089228446601935,2.7730099514563107,1.0,1.0
4.258621126213592,4.679378145631068,3.1703685922330096,4.948584941747573,3.953907951456311,5.19441372815534,3.0701702815533984,3.4980438446601942,2.8222049514563112,1.0,1.0
4.193695126213592,4.737414145631067,3.311841592233009,4.891019941747573,3.980875951456311,5.229492728155341,3.2310382815533982,3.5202428446601943,2.9548299514563108,1.0,1.0
4.411571126213592,4.961802145631069,3.62045559223301,4.958943941747573,4.184947951456311,5.26147172815534,3.4971982815533984,3.744239844660194,3.1952629514563107,1.0,1.0
4.5864801262135915,4.9478411456310685,3.7156035922330095,4.893609941747573,4.188765951456311,5.31390672815534,3.4400422815533984,3.8709898446601936,3.2798599514563107,1.0,1.0
4.7560681262135915,5.120678145631068,3.8318785922330094,5.158832941747574,4.208059951456311,5.58704972815534,3.513240281553398,4.115222844660194,3.426718951456311,1.0,1.0
4.403605126213592,4.831429145631068,3.48941959223301,5.025010941747572,3.866262951456311,5.30710272815534,3.156540281553398,3.7894948446601937,3.071351951456311,1.0,1.0
4.129756126213592,4.456439145631069,3.0860165922330096,4.751458941747573,3.62475295145631,4.92720772815534,2.7955062815533984,3.508904844660194,2.761369951456311,1.0,1.0
4.175748126213592,4.557815145631069,3.2030875922330098,4.765043941747573,3.6987559514563113,5.02451272815534,2.8911232815533983,3.6695498446601937,2.837709951456311,1.0,1.0
4.2791091262135925,4.641053145631068,3.34163559223301,4.916675941747573,3.804890951456311,5.21055072815534,2.932364281553398,3.8548228446601938,2.9611099514563106,1.0,1.0
4.043718126213592,4.363703145631068,3.0697855922330097,4.6320929417475725,3.5327089514563106,4.92137472815534,2.714217281553398,3.5782118446601943,2.727852951456311,1.0,1.0
3.727133126213592,4.017818145631068,2.6727095922330095,4.333958941747572,3.140069951456311,4.65362372815534,2.420790281553398,3.3030998446601942,2.413426951456311,1.0,1.0
3.666248126213592,3.9382201456310684,2.53171859223301,4.168386941747573,2.948010951456311,4.51634872815534,2.1865492815533982,3.2535898446601936,2.196000951456311,1.0,1.0
3.703534126213592,4.062691145631068,2.56373059223301,4.176728941747573,3.0035819514563102,4.429641728155341,2.138940281553398,3.193891844660194,2.188548951456311,1.0,1.0
3.857567126213592,4.234185145631068,2.6686525922330095,4.258839941747572,3.1133479514563107,4.38103272815534,2.2319162815533984,3.117623844660194,2.3591509514563107,1.0,1.0
3.861375126213592,4.177605145631068,2.62895159223301,4.1942059417475726,3.055078951456311,4.25810772815534,2.2249572815533982,3.018499844660194,2.374482951456311,1.0,1.0
3.612964126213592,3.8610861456310683,2.3434415922330096,4.120792941747572,2.8773209514563107,4.07550972815534,2.098094281553398,2.9483758446601938,2.1665479514563106,1.0,1.0
3.2672091262135923,3.468182145631068,2.0180345922330094,3.843732941747573,2.5581039514563106,3.8249337281553397,1.8894122815533985,2.715945844660194,1.911097951456311,1.0,1.0
3.254190126213592,3.545651145631068,2.11547059223301,3.825882941747573,2.484497951456311,3.80321272815534,1.9937412815533981,2.706496844660194,2.093538951456311,1.0,1.0
3.0547621262135918,3.4725771456310683,2.0170385922330096,3.785679941747573,2.4146859514563106,3.71485672815534,1.8988222815533982,2.5734018446601943,2.034012951456311,1.0,1.0
2.8549371262135925,3.285406145631068,1.8947915922330096,3.6778569417475726,2.3624099514563106,3.71589372815534,1.8198692815533983,2.580748844660194,2.030457951456311,1.0,1.0
2.963280126213592,3.3965551456310688,2.0313615922330097,3.720812941747573,2.479395951456311,3.92004272815534,1.9495292815533984,2.879511844660194,2.287373951456311,1.0,1.0
2.9678341262135923,3.399718145631068,2.1036245922330097,3.8021899417475726,2.517795951456311,4.012793728155341,2.0707162815533984,3.0618228446601936,2.435742951456311,1.0,1.0
3.107265126213592,3.5879031456310684,2.34520759223301,3.981660941747573,2.661085951456311,4.15121272815534,2.2374482815533985,3.202548844660194,2.613794951456311,1.0,1.0
3.216911126213592,3.767799145631068,2.5300185922330094,4.132096941747573,2.851833951456311,4.28884472815534,2.4112162815533984,3.3567068446601938,2.766888951456311,1.0,1.0
3.277031126213592,3.7704981456310684,2.61553459223301,4.2076069417475725,2.9517239514563105,4.39611772815534,2.5199562815533985,3.525161844660194,2.863014951456311,1.0,1.0
3.457448126213592,3.8427031456310683,2.74047259223301,4.3415219417475726,3.0464209514563105,4.51446072815534,2.6839282815533982,3.879548844660194,3.0241719514563106,1.0,1.0
3.3350521262135917,3.7514071456310685,2.7090865922330094,4.095934941747573,3.0716209514563104,4.38516672815534,2.669165281553398,3.9294278446601942,3.0247579514563108,1.0,1.0
2.982684126213592,3.4944751456310685,2.51979759223301,3.7342159417475727,2.841397951456311,3.98081772815534,2.3416912815533983,3.468378844660194,2.7577919514563107,1.0,1.0
2.893525126213592,3.369655145631068,2.3829655922330097,3.5128279417475725,2.7603939514563103,3.69820072815534,2.3102662815533983,3.099213844660194,2.621723951456311,1.0,1.0
3.0911871262135917,3.611815145631068,2.6348965922330096,3.637327941747573,3.155706951456311,3.93670372815534,2.7122042815533987,3.3254448446601943,2.892799951456311,1.0,1.0
3.357249126213592,3.9730211456310682,3.0667335922330095,3.853549941747573,3.4292969514563105,4.18221172815534,3.1350252815533985,3.5641628446601943,3.3140679514563107,1.0,1.0
3.651478126213592,4.309366145631069,3.3918455922330097,4.1932399417475725,3.730126951456311,4.58366772815534,3.4193482815533986,3.843567844660194,3.621126951456311,1.0,1.0
4.005914126213592,4.613352145631068,3.68194959223301,4.471240941747572,4.070832951456311,4.9731157281553395,3.6870432815533984,4.258422844660194,3.9079219514563106,1.0,1.0
4.123057126213592,4.716559145631068,3.81648559223301,4.5460829417475725,4.24566195145631,5.02947972815534,3.8254742815533986,4.4201748446601945,4.028862951456311,1.0,1.0
4.346295126213592,4.9009091456310685,4.023548592233009,4.7265419417475725,4.543088951456311,5.22774172815534,4.038646281553398,4.532625844660194,4.180190951456311,1.0,1.0
4.461808126213592,5.005846145631068,4.15202759223301,4.740134941747573,4.713530951456311,5.37157672815534,4.1873612815533985,4.660570844660194,4.310339951456311,1.0,1.0
4.101248126213592,4.747419145631068,4.053439592233009,4.433158941747573,4.4808899514563105,5.17730672815534,3.9982252815533985,4.574719844660194,4.13070095145631,1.0,1.0
3.9513911262135917,4.602010145631068,3.9911685922330093,4.239577941747573,4.41181895145631,5.07992572815534,3.8619052815533985,4.473923844660194,4.067481951456311,1.0,1.0
4.026827126213592,4.643291145631069,4.11776659223301,4.325853941747573,4.436414951456311,5.24913872815534,3.894463281553398,4.669210844660194,4.097459951456311,1.0,1.0
3.959400126213592,4.581974145631069,4.05591959223301,4.428983941747573,4.293190951456311,5.311322728155339,3.784667281553398,4.739043844660194,3.9480489514563106,1.0,1.0
3.641586126213592,4.3342601456310685,3.8419175922330093,4.213270941747573,4.082161951456311,5.187327728155339,3.6727672815533983,4.537617844660194,3.7298919514563114,1.0,1.0
3.2348341262135922,3.9299251456310684,3.4860635922330094,3.832473941747573,3.644795951456311,4.96670172815534,3.3546692815533983,4.275492844660194,3.419209951456311,1.0,1.0
2.9455971262135923,3.6731821456310683,3.16121159223301,3.7833029417475728,3.3107759514563107,4.8018247281553395,2.9776572815533986,4.110645844660194,3.152544951456311,1.0,1.0
2.968086126213592,3.736910145631068,3.18014959223301,3.926970941747573,3.3211459514563106,4.87884672815534,2.831807281553398,4.187204844660194,3.0748889514563107,1.0,1.0
2.930668126213592,3.7233301456310683,3.3101495922330098,3.909346941747573,3.282882951456311,4.94817572815534,2.9642772815533984,4.337898844660194,3.1510359514563113,1.0,1.0
2.910928126213592,3.6896511456310686,3.33058159223301,3.8352719417475725,3.2909199514563108,4.85384972815534,3.0084272815533986,4.296867844660194,3.111485951456311,1.0,1.0
2.746601126213592,3.5722201456310683,3.2298185922330096,3.7222069417475736,3.1823819514563105,4.71700872815534,2.8666312815533983,4.043066844660194,2.994041951456311,1.0,1.0
2.792906126213592,3.5758291456310682,3.159363592233009,3.609438941747573,3.1985229514563103,4.703162728155339,2.8546322815533984,3.941006844660194,3.0046069514563105,1.0,1.0
2.910663126213592,3.608203145631068,3.0996215922330093,3.6158819417475727,3.186499951456311,4.79184472815534,2.867559281553398,3.9719018446601937,2.903253951456311,1.0,1.0
2.977323126213592,3.649251145631068,3.03777059223301,3.8071759417475732,3.204684951456311,4.936876728155339,2.820056281553398,3.961190844660194,2.8749159514563107,1.0,1.0
2.997677126213592,3.6256241456310683,3.00139759223301,3.8368809417475727,3.197014951456311,5.029326728155341,2.8109522815533983,3.956119844660194,2.903786951456311,1.0,1.0
3.1380211262135917,3.661838145631068,3.1199325922330097,3.8980619417475726,3.172326951456311,5.167127728155339,2.8592612815533984,4.098944844660194,3.0114619514563112,1.0,1.0
3.1117241262135917,3.662893145631068,3.0369395922330096,3.908567941747573,3.0421199514563106,5.11243272815534,2.8194082815533985,4.087367844660194,3.011118951456311,1.0,1.0
2.853272126213592,3.4237961456310684,2.77685759223301,3.716775941747573,2.787510951456311,4.77843272815534,2.592112281553398,3.842208844660194,2.7531099514563113,1.0,1.0
2.689834126213592,3.2622151456310684,2.54646359223301,3.581121941747573,2.578228951456311,4.59902472815534,2.423465281553398,3.7197308446601944,2.609288951456311,1.0,1.0
2.596030126213592,3.0720751456310684,2.4317715922330096,3.589172941747573,2.235371951456311,4.488919728155341,2.164918281553398,3.661264844660194,2.334149951456311,1.0,1.0
2.4577301262135918,2.918898145631068,2.39788259223301,3.562700941747573,2.015264951456311,4.47612472815534,1.9427692815533981,3.671970844660194,2.0627649514563107,1.0,1.0
2.333757126213592,2.783122145631068,2.13884359223301,3.5342589417475727,2.0346699514563107,4.33927372815534,1.8843052815533983,3.543513844660194,1.932746951456311,1.0,1.0
2.226682126213592,2.7285531456310683,1.97276959223301,3.357056941747573,2.0428959514563108,4.25390672815534,1.8513702815533983,3.374923844660194,1.8393459514563109,1.0,1.0
2.3365591262135923,2.890453145631068,2.1410445922330097,3.3400239417475728,2.2161489514563106,4.27714472815534,1.9500872815533983,3.460435844660194,2.0125029514563106,1.0,1.0
2.560217126213592,2.9477311456310686,2.2140505922330096,3.390700941747573,2.383895951456311,4.37202472815534,2.053630281553398,3.556545844660194,2.113025951456311,1.0,1.0
2.401185126213592,2.7883081456310688,2.07218859223301,3.278331941747573,2.2022909514563107,4.1788777281553395,1.8548622815533984,3.404548844660194,1.9051599514563111,1.0,1.0
2.2802031262135922,2.7584561456310683,2.10308959223301,3.279177941747573,2.310481951456311,4.00851272815534,1.919101281553398,3.350745844660194,1.940787951456311,1.0,1.0
2.210011126213592,2.638747145631068,1.9441435922330095,3.201658941747573,2.1903689514563105,3.6930687281553403,1.6820242815533981,3.0350138446601935,1.689584951456311,1.0,1.0
1.8081511262135919,2.1850701456310686,1.4730305922330098,2.919268941747573,1.7303249514563106,3.2589147281553403,1.1924992815533983,2.5797018446601943,1.198203951456311,1.0,1.0
1.781249126213592,2.095643145631068,1.4331185922330096,2.9361209417475727,1.6574419514563106,3.3207697281553403,1.1863612815533984,2.451108844660194,1.136363951456311,1.0,1.0
2.0545651262135918,2.277365145631068,1.7091975922330098,3.157335941747573,1.8620959514563105,3.5784867281553403,1.4185082815533983,2.618094844660194,1.293341951456311,1.0,1.0
2.283816126213592,2.500384145631068,1.9687505922330095,3.2630729417475726,2.0701099514563106,3.67283972815534,1.6101702815533983,2.807000844660194,1.4853089514563111,1.0,1.0
2.326263126213592,2.606831145631068,2.0494105922330097,3.2866529417475725,2.1270089514563106,3.6387787281553403,1.5986582815533985,2.813503844660194,1.4919429514563112,1.0,1.0
2.3029441262135917,2.590076145631068,2.02071559223301,3.3276549417475723,2.0784569514563107,3.63924772815534,1.5549712815533983,2.7720968446601946,1.423017951456311,1.0,1.0
2.748154126213592,3.003106145631068,2.4324705922330097,3.8445649417475725,2.524154951456311,4.06531772815534,1.9337602815533983,3.277484844660194,1.7896459514563108,1.0,1.0
3.1313321262135916,3.4043621456310684,2.85307959223301,4.155830941747573,2.825296951456311,4.45001572815534,2.288361281553398,3.644167844660194,2.139344951456311,1.0,1.0
3.166829126213592,3.479854145631068,2.87073859223301,4.1073439417475734,2.7916219514563108,4.390424728155341,2.340590281553398,3.613756844660194,2.172259951456311,1.0,1.0
2.771814126213592,3.0938471456310683,2.42868159223301,3.7173679417475727,2.453641951456311,3.73176472815534,1.921216281553398,3.092249844660194,1.6654919514563111,1.0,1.0
2.399961126213592,2.7674591456310678,2.1229535922330096,3.331644941747573,2.1766579514563107,3.4163557281553403,1.5839632815533984,2.712959844660194,1.3455219514563108,1.0,1.0
2.498106126213592,2.8436051456310683,2.2352815922330094,3.3265469417475724,2.3041969514563108,3.44186272815534,1.5515412815533984,2.552231844660194,1.359619951456311,1.0,1.0
2.4240711262135917,2.797513145631068,2.1979445922330094,3.269574941747573,2.178113951456311,3.33247572815534,1.486570281553398,2.361971844660194,1.233841951456311,1.0,1.0
2.404328126213592,2.7555121456310685,2.06012459223301,3.3110859417475726,2.072738951456311,3.35389272815534,1.4029942815533984,2.331375844660194,1.1285999514563108,1.0,1.0
2.475291126213592,2.809741145631068,2.0807395922330096,3.437453941747573,2.107861951456311,3.59846772815534,1.2884762815533983,2.4202208446601943,1.0700419514563109,1.0,1.0
2.6729281262135918,3.0501421456310687,2.32494559223301,3.5872529417475727,2.2451949514563108,3.83059272815534,1.4633092815533986,2.665602844660194,1.3098249514563107,1.0,1.0
3.091689126213592,3.4907611456310685,2.7795635922330098,3.847529941747573,2.647642951456311,4.11921972815534,1.9425312815533982,2.989100844660194,1.8204709514563109,1.0,1.0
3.1610901262135918,3.569820145631068,2.92046959223301,3.873869941747573,2.739915951456311,4.22103572815534,2.0417592815533983,2.897568844660194,1.901681951456311,1.0,1.0
2.9952611262135918,3.3129911456310683,2.7576265922330094,3.696148941747573,2.6345819514563105,4.10664572815534,1.9583642815533984,2.7367718446601943,1.806712951456311,1.0,1.0
2.917241126213592,3.3031191456310682,2.63414259223301,3.6293049417475727,2.570327951456311,4.02227372815534,1.8558212815533983,2.636976844660194,1.7427029514563108,1.0,1.0
2.950150126213592,3.3488181456310686,2.6597885922330096,3.693824941747573,2.4743149514563108,4.00377672815534,1.762210281553398,2.605589844660194,1.651798951456311,1.0,1.0
2.830482126213592,3.219274145631068,2.5672785922330097,3.6221149417475726,2.354401951456311,3.7308827281553403,1.6573012815533985,2.5433598446601944,1.5618899514563105,1.0,1.0
2.667505126213592,3.0716991456310683,2.4047965922330095,3.4068789417475727,2.1022559514563106,3.5586247281553396,1.433193281553398,2.465772844660194,1.4255819514563108,1.0,1.0
2.602826126213592,3.0525731456310683,2.4566205922330098,3.272984941747573,1.8984129514563108,3.53506172815534,1.3591332815533983,2.3952828446601937,1.5083089514563108,1.0,1.0
2.6704371262135917,3.2027931456310683,2.6870915922330094,3.478245941747573,1.9399479514563105,3.7355317281553404,1.4531622815533982,2.509638844660194,1.804180951456311,1.0,1.0
2.5967991262135923,3.2355611456310682,2.7766975922330097,3.6381559417475726,1.9349529514563109,3.7853827281553394,1.5066062815533983,2.7011298446601937,1.8915019514563107,1.0,1.0
2.5402301262135922,3.119736145631068,2.7179885922330094,3.5314729417475728,1.9722499514563105,3.81212672815534,1.5790802815533982,2.917407844660194,1.911560951456311,1.0,1.0
2.485585126213592,2.970509145631068,2.61085959223301,3.3930979417475724,1.978767951456311,3.75803972815534,1.5188852815533982,2.8833198446601944,1.792556951456311,1.0,1.0
2.3698891262135917,2.9382351456310682,2.5346895922330095,3.215036941747573,1.8927499514563106,3.52375672815534,1.4219642815533982,2.5898728446601944,1.6415919514563109,1.0,1.0
2.3640821262135923,3.007950145631068,2.54212659223301,3.1553759417475726,2.0591269514563106,3.3858057281553395,1.579015281553398,2.424439844660194,1.698740951456311,1.0,1.0
2.343422126213592,2.934392145631068,2.4068345922330097,3.147955941747573,1.8726579514563106,3.3595747281553394,1.4758722815533982,2.221752844660194,1.5715209514563109,1.0,1.0
2.417561126213592,2.9760351456310685,2.37855759223301,3.182240941747573,1.7868029514563109,3.45510872815534,1.4570432815533982,2.276129844660194,1.5933249514563108,1.0,1.0
2.528558126213592,3.0122371456310684,2.3798035922330096,3.2292569417475727,2.013425951456311,3.59310772815534,1.5907852815533983,2.4097108446601943,1.7183809514563109,1.0,1.0
2.616043126213592,3.0840671456310678,2.45690759223301,3.3880859417475726,2.2279169514563106,3.74309272815534,1.7275312815533983,2.413529844660194,1.759519951456311,1.0,1.0
2.628582126213592,3.047151145631068,2.4477585922330096,3.496513941747573,2.3763449514563106,3.7070357281553403,1.8469072815533982,2.418190844660194,1.810933951456311,1.0,1.0
2.5876091262135916,2.967425145631068,2.3201215922330096,3.4228279417475727,2.363932951456311,3.5896187281553398,1.8497252815533982,2.436151844660194,1.8034039514563107,1.0,1.0
2.4680491262135917,2.887499145631068,2.1719165922330097,3.324901941747573,2.3545189514563107,3.55857372815534,1.7572382815533982,2.239657844660194,1.7341759514563109,1.0,1.0
2.283393126213592,2.644435145631068,1.9075715922330096,3.1678529417475727,2.077942951456311,3.40130072815534,1.4372812815533982,2.0569758446601942,1.493500951456311,1.0,1.0
2.070434126213592,2.407340145631068,1.6259385922330096,2.9261889417475726,1.832920951456311,3.29879672815534,1.1892332815533981,1.983578844660194,1.284906951456311,1.0,1.0
1.8678411262135919,2.1880271456310685,1.3805725922330097,2.614930941747573,1.672055951456311,3.07794672815534,1.064609281553398,1.7631708446601941,1.124125951456311,1.0,1.0
1.6878571262135922,1.9494371456310682,1.1952395922330097,2.409113941747573,1.5139429514563107,2.8068357281553404,1.0124392815533982,1.4861958446601937,1.034331951456311,1.0,1.0
1.665962126213592,1.8502501456310683,1.0981315922330097,2.519794941747573,1.5079439514563107,2.7032147281553405,1.0765372815533982,1.536102844660194,1.0585689514563108,1.0,1.0
1.6892211262135919,1.8351081456310683,1.1010735922330097,2.535512941747573,1.5173239514563108,2.71731272815534,0.9755742815533982,1.6367748446601942,1.004670951456311,1.0,1.0
1.736983126213592,1.9008801456310684,1.1419035922330096,2.609918941747573,1.5445839514563107,2.8131357281553395,0.9477682815533981,1.697863844660194,1.028610951456311,1.0,1.0
1.774576126213592,1.9051681456310683,0.9908495922330097,2.604010941747573,1.4505529514563105,2.86162172815534,0.8334842815533983,1.590692844660194,0.891497951456311,1.0,1.0
1.719765126213592,1.7950101456310685,0.9388335922330097,2.5345559417475725,1.3618759514563106,2.87857672815534,0.6125392815533982,1.618100844660194,0.7332589514563109,1.0,1.0
1.9437521262135917,2.0107621456310683,1.2082695922330096,2.635213941747572,1.579514951456311,2.95327872815534,0.7721592815533982,1.874523844660194,0.9296349514563108,1.0,1.0
2.129197126213592,2.1563981456310684,1.2595465922330098,2.787065941747573,1.806595951456311,2.97558172815534,1.0294772815533981,1.9105138446601941,1.1717569514563109,1.0,1.0
1.826859126213592,1.8791531456310684,0.9339135922330096,2.5695629417475727,1.5164279514563108,2.70653672815534,0.8547332815533981,1.5776908446601943,1.021489951456311,1.0,1.0
1.5721081262135919,1.7291901456310683,0.7867095922330097,2.4341689417475725,1.1765979514563107,2.57809872815534,0.6956742815533982,1.5449468446601942,0.9236919514563108,1.0,1.0
1.6831641262135917,1.8663761456310684,0.8913575922330098,2.487363941747573,1.2284599514563108,2.59898372815534,0.7606022815533982,1.593505844660194,0.9818059514563109,1.0,1.0
1.8276451262135922,1.9846991456310683,0.9469145922330098,2.649874941747573,1.4780299514563107,2.6556897281553398,0.9037702815533984,1.5878428446601942,1.1557499514563108,1.0,1.0
1.7921121262135917,1.9848411456310684,0.9315975922330095,2.6955829417475727,1.421422951456311,2.53046672815534,0.8360842815533982,1.628352844660194,1.160508951456311,1.0,1.0
1.839033126213592,1.9504311456310683,0.9460895922330096,2.541089941747573,1.3401409514563107,2.39839472815534,0.7467642815533982,1.6823478446601938,1.191870951456311,1.0,1.0
1.8583801262135922,2.037471145631068,1.1122285922330097,2.5267599417475726,1.3912529514563108,2.47615772815534,0.8582662815533982,1.940891844660194,1.323305951456311,1.0,1.0
1.948462126213592,2.1662411456310684,1.3024915922330098,2.673888941747573,1.5630099514563107,2.62991672815534,0.9818182815533983,2.060957844660194,1.4348539514563108,1.0,1.0
