subject,condition,sample,Fz,FCz,Cz,FC3,FC4,C3,C4,CP3,CP4,time_ms
38.0,1.0,1.0,-1.9692079999999998,-0.9404129999999998,-2.4426469999999996,-1.114556,-0.6982079999999997,-2.173206,-1.635663,-2.182352,-3.121309,-1500.0
38.0,1.0,2.0,-1.7770439999999998,-0.7697029999999999,-2.265815,-1.0604609999999999,-0.5552960000000001,-2.038664,-1.3717379999999997,-1.9930069999999998,-2.980851,-1499.0234
38.0,1.0,3.0,-1.78943,-0.8802379999999999,-2.36558,-1.0438859999999999,-0.6540170000000001,-2.002302,-1.268354,-1.968878,-2.998305,-1498.0469
38.0,1.0,4.0,-1.828607,-0.9441240000000001,-2.465906,-0.9416919999999998,-0.7356320000000003,-2.007379,-1.344729,-2.030375,-3.189963,-1497.0703
38.0,1.0,5.0,-2.0454309999999998,-1.1939130000000002,-2.592588,-0.962842,-0.9026770000000001,-2.138284,-1.564092,-2.112045,-3.4634750000000003,-1496.0938
38.0,1.0,6.0,-2.167226,-1.3602429999999999,-2.780018,-0.9890180000000001,-0.8989589999999998,-2.169689,-1.699453,-2.071061,-3.574864,-1495.1172
38.0,1.0,7.0,-1.920684,-1.193886,-2.790894,-0.967835,-0.7829580000000002,-2.122644,-1.6507420000000002,-2.072635,-3.552745,-1494.1406
38.0,1.0,8.0,-1.8138589999999999,-1.185845,-2.859624,-1.167046,-0.8402210000000001,-2.224127,-1.77693,-2.352993,-3.709108,-1493.1641
38.0,1.0,9.0,-1.7290290000000001,-1.172277,-2.8313490000000003,-1.16608,-0.95854,-2.2132709999999998,-2.078313,-2.497397,-3.834403,-1492.1875
38.0,1.0,10.0,-1.69202,-1.0875700000000001,-2.7949560000000004,-1.0702850000000002,-1.0502589999999998,-2.207928,-2.213175,-2.450336,-3.7793349999999997,-1491.2109
38.0,1.0,11.0,-1.8951500000000001,-1.3195280000000003,-3.103451,-1.335642,-1.2183229999999998,-2.525481,-2.432961,-2.6353229999999996,-4.044733,-1490.2344
38.0,1.0,12.0,-1.8277140000000003,-1.2097950000000002,-3.078643,-1.2781659999999997,-1.2054859999999998,-2.513128,-2.526529,-2.604151,-4.098706,-1489.2578
38.0,1.0,13.0,-1.600819,-0.8875990000000001,-2.84467,-0.8994420000000001,-0.8159569999999999,-2.279557,-2.180526,-2.383156,-3.811341,-1488.2813
38.0,1.0,14.0,-1.190439,-0.5349530000000001,-2.4760590000000002,-0.40357399999999993,-0.42750499999999997,-1.977731,-1.8788459999999998,-2.190762,-3.474606,-1487.3047
38.0,1.0,15.0,-0.879593,-0.316775,-2.252447,-0.09509399999999997,-0.3220549999999999,-1.650102,-1.8735840000000001,-1.8795340000000003,-3.330068,-1486.3281
38.0,1.0,16.0,-0.7086830000000003,-0.12535200000000019,-2.078921,-0.024604,-0.28319000000000005,-1.658376,-1.9583139999999997,-1.7806520000000001,-3.41159,-1485.3516
38.0,1.0,17.0,-0.43936800000000004,0.15316299999999988,-1.968758,0.06427000000000026,-0.17609199999999994,-1.564622,-1.7916339999999997,-1.772603,-3.411092,-1484.375
38.0,1.0,18.0,-0.21411399999999972,0.47814499999999993,-1.7349350000000001,0.395524,0.09371100000000013,-1.266066,-1.515227,-1.540239,-3.283714,-1483.3984
38.0,1.0,19.0,-0.09773500000000004,0.6930619999999998,-1.5035070000000001,0.6208990000000001,0.27492900000000003,-1.147754,-1.441482,-1.444435,-3.118027,-1482.4219
38.0,1.0,20.0,0.063175,0.7439640000000002,-1.395726,0.5086009999999999,0.30331299999999983,-1.216801,-1.5541559999999999,-1.598954,-3.1064920000000003,-1481.4453
38.0,1.0,21.0,-0.07044800000000005,0.4997660000000002,-1.6194540000000002,0.416303,0.06634999999999995,-1.4019539999999997,-1.6846940000000001,-1.829669,-3.2259089999999997,-1480.4688
38.0,1.0,22.0,0.12116799999999998,0.6787169999999999,-1.5756299999999999,0.696456,0.07198599999999981,-1.3466680000000002,-1.535952,-1.7637129999999999,-3.167524,-1479.4922
38.0,1.0,23.0,0.43591700000000005,1.0546010000000001,-1.265483,1.0640999999999998,0.26416000000000006,-1.068177,-1.263963,-1.55553,-2.924444,-1478.5156
38.0,1.0,24.0,0.324924,1.0879679999999998,-1.226826,1.110906,0.258371,-0.9986409999999999,-1.330329,-1.537723,-2.829608,-1477.5391
38.0,1.0,25.0,0.236233,0.905102,-1.4376110000000002,0.8583389999999999,0.2451940000000001,-1.201131,-1.4952120000000002,-1.676876,-2.9817539999999996,-1476.5625
38.0,1.0,26.0,0.15401099999999998,0.692733,-1.471843,0.5770150000000001,0.2083590000000001,-1.279744,-1.575423,-1.7555209999999999,-3.1167599999999998,-1475.5859
38.0,1.0,27.0,-0.03398399999999995,0.6743550000000001,-1.56462,0.3531420000000001,-0.059690999999999904,-1.2703410000000002,-1.7780099999999999,-1.7514200000000002,-3.218437,-1474.6094
38.0,1.0,28.0,-0.14651699999999998,0.6987500000000003,-1.5612769999999998,0.266869,-0.140696,-1.2312090000000002,-1.8772040000000003,-1.7280259999999998,-3.132484,-1473.6328
38.0,1.0,29.0,0.13143599999999986,1.0794839999999999,-1.159292,0.5474330000000001,0.2670290000000001,-0.961512,-1.533862,-1.490856,-2.79619,-1472.6563
38.0,1.0,30.0,0.3192269999999999,1.265059,-0.900619,0.7233789999999999,0.5788039999999998,-0.8351870000000001,-1.227862,-1.334244,-2.5509209999999998,-1471.6797
38.0,1.0,31.0,0.1439119999999999,1.0642690000000001,-1.068261,0.6184570000000003,0.529316,-0.9608629999999999,-1.1789830000000001,-1.507334,-2.6233519999999997,-1470.7031
38.0,1.0,32.0,-0.02837899999999996,0.8837610000000001,-1.3708150000000001,0.3518100000000002,0.4261670000000001,-1.1728260000000001,-1.3414579999999998,-1.781198,-2.8661290000000004,-1469.7266
38.0,1.0,33.0,0.014807999999999967,0.9155930000000001,-1.3360640000000001,0.3182239999999999,0.49174299999999993,-1.21676,-1.2315829999999999,-1.886986,-2.8665269999999996,-1468.75
38.0,1.0,34.0,0.011363000000000057,0.8419599999999999,-1.200206,0.33742400000000006,0.5536909999999999,-1.1197359999999998,-0.9543510000000002,-1.740267,-2.7270459999999996,-1467.7734
38.0,1.0,35.0,0.15375799999999995,0.967952,-1.273479,0.426922,0.55499,-1.095167,-0.6641330000000001,-1.673655,-2.6088140000000006,-1466.7969
38.0,1.0,36.0,0.39855499999999994,1.2349009999999998,-1.147044,0.5936589999999999,0.7127899999999999,-1.03159,-0.4582029999999999,-1.691873,-2.374651,-1465.8203
38.0,1.0,37.0,0.7856650000000001,1.477493,-0.945254,0.847585,0.9991999999999999,-0.8566039999999999,-0.15396699999999988,-1.4949620000000001,-2.06606,-1464.8438
38.0,1.0,38.0,0.828092,1.337939,-1.0717089999999998,0.858463,0.940734,-0.926021,-0.33801799999999993,-1.579712,-2.177372,-1463.8672
38.0,1.0,39.0,0.744496,1.2015440000000002,-1.241596,0.7062010000000001,0.820094,-1.0706470000000001,-0.555339,-1.768323,-2.324452,-1462.8906
38.0,1.0,40.0,0.826052,1.194765,-1.2568129999999997,0.5553100000000001,0.803029,-1.097154,-0.580292,-1.874852,-2.284315,-1461.9141
38.0,1.0,41.0,0.9554870000000001,1.25203,-1.171603,0.46610399999999996,0.8397789999999999,-1.071501,-0.5313439999999999,-1.885263,-2.2464090000000003,-1460.9375
38.0,1.0,42.0,0.7645469999999999,1.198405,-1.2454020000000001,0.3613940000000001,0.76377,-1.124482,-0.47623999999999994,-1.890926,-2.406352,-1459.9609
38.0,1.0,43.0,0.7084920000000001,1.188233,-1.120785,0.5265719999999999,0.758682,-1.0684440000000002,-0.293496,-1.794183,-2.287662,-1458.9844
38.0,1.0,44.0,0.780821,1.335139,-0.987269,0.644795,0.8336649999999998,-1.048065,-0.26676400000000006,-1.621126,-2.214031,-1458.0078
38.0,1.0,45.0,0.8071729999999999,1.3805300000000003,-0.9016329999999999,0.6938440000000001,0.8028200000000001,-1.110055,-0.445991,-1.750677,-2.20115,-1457.0313
38.0,1.0,46.0,1.1616780000000002,1.548826,-0.681482,0.878337,1.1470770000000001,-1.075623,-0.20538500000000007,-1.81833,-1.950499,-1456.0547
38.0,1.0,47.0,1.4151489999999998,1.818423,-0.5806619999999998,1.066328,1.41363,-1.0117770000000001,0.081464,-1.7811320000000002,-1.765736,-1455.0781
38.0,1.0,48.0,1.2202000000000002,1.649921,-0.8645430000000001,0.7833720000000001,1.215285,-1.306442,-0.13498000000000016,-1.957396,-1.987869,-1454.1016
38.0,1.0,49.0,0.8679929999999999,1.246621,-1.1586269999999999,0.4145649999999999,0.93721,-1.592049,-0.48399800000000015,-2.1744570000000003,-2.2787610000000003,-1453.125
38.0,1.0,50.0,0.4887109999999999,0.8872800000000001,-1.399191,-0.03426600000000004,0.539802,-1.822071,-0.8579590000000001,-2.401065,-2.479835,-1452.1484
38.0,1.0,51.0,-0.025852000000000003,0.397012,-1.8832569999999997,-0.597718,-0.09261500000000016,-2.257728,-1.55465,-2.8106719999999994,-2.8677539999999997,-1451.1719
38.0,1.0,52.0,-0.12797999999999993,0.21711999999999987,-1.979499,-0.7126859999999999,-0.13121899999999997,-2.3834709999999997,-1.8098850000000002,-2.869763,-2.9352389999999997,-1450.1953
38.0,1.0,53.0,0.12563100000000013,0.298935,-1.7908530000000003,-0.6071940000000001,0.1565589999999998,-2.18874,-1.57705,-2.655835,-2.749162,-1449.2188
38.0,1.0,54.0,0.5605680000000001,0.5289409999999998,-1.583072,-0.4387940000000002,0.47148500000000015,-1.98537,-1.178613,-2.405924,-2.396926,-1448.2422
38.0,1.0,55.0,0.8475249999999999,0.8146000000000001,-1.2829089999999999,-0.23397899999999994,0.7578149999999998,-1.725389,-0.831593,-2.092058,-2.030047,-1447.2656
38.0,1.0,56.0,0.896309,0.945544,-1.065905,-0.021907000000000093,1.037388,-1.661217,-0.5346949999999999,-1.935051,-1.859877,-1446.2891
38.0,1.0,57.0,0.9182499999999999,1.080307,-0.8817529999999999,0.09016600000000008,1.094274,-1.677783,-0.4396729999999999,-1.9993029999999998,-1.830779,-1445.3125
38.0,1.0,58.0,1.0316070000000002,1.220071,-0.857707,0.05445599999999998,1.1253110000000002,-1.772682,-0.4923260000000002,-2.088138,-1.8752339999999998,-1444.3359
38.0,1.0,59.0,0.9884010000000001,1.214209,-0.8884339999999998,-0.15598099999999995,1.0978839999999999,-1.847339,-0.5895709999999998,-2.027263,-1.9048640000000001,-1443.3594
38.0,1.0,60.0,0.6358750000000001,0.9497479999999999,-1.112284,-0.35235099999999986,0.6968690000000001,-2.028886,-1.0219079999999998,-2.1198330000000003,-2.2252009999999998,-1442.3828
38.0,1.0,61.0,0.282711,0.7613370000000002,-1.3768529999999999,-0.4498640000000001,0.332556,-2.2798410000000002,-1.450383,-2.385793,-2.5268379999999997,-1441.4063
38.0,1.0,62.0,0.2600739999999998,0.7652050000000001,-1.396029,-0.379116,0.256689,-2.2745409999999997,-1.3571970000000002,-2.497231,-2.481146,-1440.4297
38.0,1.0,63.0,0.30261399999999994,0.792377,-1.3021770000000001,-0.38011900000000004,0.3663890000000001,-2.204795,-1.134314,-2.544133,-2.258282,-1439.4531
38.0,1.0,64.0,0.37860199999999994,0.9057810000000001,-1.209275,-0.42508500000000005,0.6881220000000002,-2.264618,-0.9079339999999999,-2.628299,-2.036982,-1438.4766
38.0,1.0,65.0,0.3959779999999998,0.9409030000000002,-1.3012469999999998,-0.6442969999999998,0.8055270000000001,-2.475164,-0.9921290000000001,-2.7911719999999995,-2.081086,-1437.5
38.0,1.0,66.0,0.5661160000000001,1.0953159999999997,-1.057345,-0.5159969999999999,0.9791709999999999,-2.372678,-1.033335,-2.6417170000000003,-1.993306,-1436.5234
38.0,1.0,67.0,0.6252850000000001,1.2152290000000001,-0.883151,-0.5035300000000001,0.9936060000000001,-2.397371,-1.1618380000000001,-2.699619,-1.9101810000000001,-1435.5469
38.0,1.0,68.0,0.6309290000000001,1.1656999999999997,-0.8649110000000002,-0.704448,0.814673,-2.5042519999999997,-1.310858,-2.8076,-1.901938,-1434.5703
38.0,1.0,69.0,0.49751199999999995,1.170949,-0.9980669999999999,-0.789482,0.6906300000000001,-2.614866,-1.409666,-2.7454520000000002,-1.9775029999999998,-1433.5938
38.0,1.0,70.0,0.5643090000000002,1.1785559999999997,-0.9800810000000001,-0.6222229999999999,0.6824529999999999,-2.478304,-1.498274,-2.605937,-2.066464,-1432.6172
38.0,1.0,71.0,0.6128140000000001,1.077115,-0.797073,-0.43267199999999995,0.6355559999999999,-2.245514,-1.5946290000000003,-2.49886,-1.97577,-1431.6406
38.0,1.0,72.0,0.72435,1.259363,-0.530113,-0.139687,0.8951929999999999,-1.9842339999999998,-1.260844,-2.23117,-1.6182420000000002,-1430.6641
38.0,1.0,73.0,0.9442469999999998,1.608646,-0.12147399999999994,0.09567900000000011,1.453551,-1.6437609999999998,-0.6635860000000001,-1.8727870000000002,-1.113685,-1429.6875
38.0,1.0,74.0,0.8062419999999999,1.5745429999999998,-0.08170400000000004,0.034048000000000016,1.4188119999999997,-1.510966,-0.6558379999999999,-1.7254489999999998,-1.034811,-1428.7109
38.0,1.0,75.0,0.605819,1.3629410000000002,-0.21598000000000003,-0.07568999999999988,1.106216,-1.6122720000000001,-0.7135859999999999,-1.753288,-1.170924,-1427.7344
38.0,1.0,76.0,0.5733980000000001,1.3519780000000003,-0.3524820000000002,0.0670540000000001,1.1197920000000001,-1.603939,-0.4782459999999999,-1.627128,-1.1070689999999999,-1426.7578
38.0,1.0,77.0,0.560913,1.2294159999999998,-0.44628599999999985,0.19299499999999994,1.2279080000000002,-1.555444,-0.34997600000000006,-1.5842619999999998,-1.028346,-1425.7813
38.0,1.0,78.0,0.47706899999999985,1.170937,-0.38812799999999986,0.22170399999999987,1.233989,-1.4918159999999998,-0.379079,-1.5321710000000002,-1.0633289999999997,-1424.8047
38.0,1.0,79.0,0.38550900000000005,1.2280720000000003,-0.33630400000000016,0.249152,1.2622829999999998,-1.362887,-0.3996849999999999,-1.353627,-0.9869239999999999,-1423.8281
38.0,1.0,80.0,0.2510300000000001,1.064522,-0.42688299999999996,0.07727299999999991,1.178403,-1.4761190000000002,-0.478962,-1.430866,-0.9668549999999999,-1422.8516
38.0,1.0,81.0,0.4639249999999999,1.124926,-0.40200899999999995,0.16177300000000006,1.209977,-1.411526,-0.272941,-1.2675640000000001,-0.8707649999999998,-1421.875
38.0,1.0,82.0,0.566355,1.231643,-0.2784829999999999,0.252788,1.2225890000000001,-1.240698,-0.30070699999999995,-1.0746140000000002,-0.8109209999999999,-1420.8984
38.0,1.0,83.0,0.530343,1.2144359999999998,-0.20301200000000003,0.21825900000000004,1.2382300000000002,-1.165584,-0.46292599999999995,-1.135829,-0.7193860000000001,-1419.9219
38.0,1.0,84.0,0.4492529999999999,1.107702,-0.31200200000000006,0.03503800000000004,1.1778250000000001,-1.237084,-0.5111180000000001,-1.2162179999999996,-0.7458490000000001,-1418.9453
38.0,1.0,85.0,0.570283,1.176068,-0.26951100000000006,0.037763999999999874,1.233549,-1.204812,-0.32987400000000006,-1.108948,-0.628911,-1417.9688
38.0,1.0,86.0,0.9181940000000001,1.5741679999999996,0.07262499999999997,0.5197110000000001,1.5608449999999998,-0.879481,0.04738,-0.8088989999999999,-0.30693000000000004,-1416.9922
38.0,1.0,87.0,1.329217,1.810539,0.43275800000000003,0.8946369999999999,2.080958,-0.552915,0.32595399999999997,-0.49651,-0.061284000000000206,-1416.0156
38.0,1.0,88.0,1.630998,1.944518,0.5733989999999999,1.1280309999999998,2.323619,-0.46038500000000016,0.6371420000000001,-0.43014800000000014,-0.011290999999999957,-1415.0391
38.0,1.0,89.0,1.6947680000000003,1.9082479999999997,0.506815,1.14642,2.285138,-0.5673910000000001,0.6972740000000001,-0.562769,-0.2071029999999999,-1414.0625
38.0,1.0,90.0,1.589524,1.6816629999999997,0.233697,1.049367,2.016434,-0.7923610000000001,0.41899999999999976,-0.7361070000000002,-0.4457550000000002,-1413.0859
38.0,1.0,91.0,1.4273060000000002,1.4225549999999998,0.15395499999999993,0.983639,1.8131389999999998,-0.850626,0.16527599999999992,-0.846513,-0.5244319999999999,-1412.1094
38.0,1.0,92.0,1.547107,1.531771,0.286856,1.192294,1.8933760000000002,-0.6279250000000001,0.34535600000000016,-0.7172040000000002,-0.438604,-1411.1328
38.0,1.0,93.0,1.636599,1.601501,0.382864,1.280366,1.921455,-0.49821,0.5177959999999999,-0.6573689999999999,-0.40969100000000014,-1410.1563
38.0,1.0,94.0,1.6311429999999998,1.673227,0.37380500000000005,1.3322,2.125418,-0.513975,0.6556310000000002,-0.6975079999999998,-0.360436,-1409.1797
38.0,1.0,95.0,1.4652490000000002,1.537003,-0.05272099999999969,0.98718,2.0669210000000002,-0.7454139999999999,0.5537489999999998,-0.888101,-0.565528,-1408.2031
38.0,1.0,96.0,1.468007,1.527705,-0.1357550000000001,0.7557930000000002,2.091603,-0.8097510000000001,0.5443690000000001,-0.9064050000000001,-0.617701,-1407.2266
38.0,1.0,97.0,1.5349650000000004,1.595938,0.0033759999999999923,0.710676,2.134162,-0.86838,0.5686680000000003,-0.9874560000000001,-0.5819199999999999,-1406.25
38.0,1.0,98.0,1.643527,1.596251,-0.04331100000000008,0.834537,2.138608,-0.8550760000000001,0.37497499999999995,-1.0458739999999997,-0.70257,-1405.2734
38.0,1.0,99.0,1.6974529999999999,1.623424,0.01027699999999994,0.7991670000000001,2.112302,-0.8191219999999998,0.2608500000000001,-1.095046,-0.7255950000000001,-1404.2969
38.0,1.0,100.0,1.7058430000000002,1.708234,0.07041099999999999,0.7849850000000003,2.072848,-0.762236,0.43580800000000003,-1.0418809999999998,-0.641379,-1403.3203
38.0,1.0,101.0,1.6127170000000002,1.738645,-0.02924800000000001,0.7813749999999999,2.036121,-0.818081,0.46088500000000027,-1.0273629999999998,-0.6505620000000001,-1402.3438
38.0,1.0,102.0,1.6612540000000002,1.847972,0.04544999999999995,0.867397,2.124634,-0.8371740000000003,0.345308,-1.017236,-0.715875,-1401.3672
38.0,1.0,103.0,1.751798,1.765993,0.07396899999999997,0.8903840000000001,2.128356,-0.8308329999999998,0.254599,-1.0795400000000002,-0.7712220000000001,-1400.3906
38.0,1.0,104.0,1.74448,1.784957,0.16312199999999996,0.866012,2.094579,-0.8909699999999999,0.12721500000000013,-1.080756,-0.8571870000000001,-1399.4141
38.0,1.0,105.0,1.7950310000000003,1.8162729999999998,0.2408649999999999,0.9775649999999999,2.189161,-0.8502259999999998,0.11292700000000008,-1.151156,-0.902737,-1398.4375
38.0,1.0,106.0,1.588012,1.591165,-0.10022499999999987,0.799941,1.9237980000000001,-1.0789879999999998,-0.10671499999999978,-1.499948,-1.2307130000000002,-1397.4609
38.0,1.0,107.0,1.291964,1.3424850000000002,-0.5279379999999999,0.586038,1.600918,-1.370667,-0.31018100000000004,-1.7117159999999998,-1.5570770000000003,-1396.4844
38.0,1.0,108.0,0.9733979999999999,1.157499,-0.6236309999999999,0.5832419999999999,1.3220640000000001,-1.52021,-0.5172170000000001,-1.9124940000000001,-1.7741160000000002,-1395.5078
38.0,1.0,109.0,0.8399169999999999,1.1368550000000002,-0.5434559999999998,0.571132,1.33094,-1.4995349999999998,-0.5433590000000001,-1.9784469999999998,-1.775685,-1394.5313
38.0,1.0,110.0,0.894012,1.0701049999999999,-0.7116089999999999,0.48008199999999995,1.394213,-1.578761,-0.504104,-1.921062,-1.801027,-1393.5547
38.0,1.0,111.0,1.086106,1.005477,-0.819384,0.48021100000000005,1.325067,-1.608715,-0.48786699999999994,-1.92719,-1.890763,-1392.5781
38.0,1.0,112.0,1.44382,1.237269,-0.678649,0.8407789999999999,1.6608380000000003,-1.365029,-0.2728869999999999,-1.7382600000000001,-1.764141,-1391.6016
38.0,1.0,113.0,1.3091019999999998,1.131627,-0.5974099999999999,0.8154079999999999,1.763048,-1.363717,-0.2138849999999999,-1.7981360000000002,-1.715617,-1390.625
38.0,1.0,114.0,1.064968,0.9801810000000002,-0.5448129999999999,0.622411,1.616039,-1.4002339999999998,-0.278621,-1.8395339999999998,-1.8155480000000004,-1389.6484
38.0,1.0,115.0,0.866093,0.7627339999999999,-0.874761,0.3627720000000001,1.285013,-1.625279,-0.649941,-1.992261,-2.117817,-1388.6719
38.0,1.0,116.0,0.731501,0.7394480000000001,-0.9747139999999999,0.3588429999999999,1.043772,-1.7463980000000001,-0.82756,-2.125629,-2.219334,-1387.6953
38.0,1.0,117.0,0.537989,0.732471,-1.048759,0.22023599999999996,0.9601140000000001,-1.881516,-0.82048,-2.226836,-2.3568040000000003,-1386.7188
38.0,1.0,118.0,0.4188930000000001,0.726222,-1.050784,0.10523099999999999,1.0321850000000001,-1.8497799999999998,-0.7550260000000002,-2.091381,-2.5085940000000004,-1385.7422
38.0,1.0,119.0,0.24305,0.694362,-1.0443520000000002,0.13595900000000005,0.942979,-1.8031370000000002,-0.7619120000000001,-2.066827,-2.624035,-1384.7656
38.0,1.0,120.0,0.01998500000000014,0.4563829999999999,-1.348137,-0.024479000000000167,0.727106,-1.8984,-0.974885,-2.105065,-2.765486,-1383.7891
38.0,1.0,121.0,-0.3666149999999999,0.18965400000000007,-1.5995,-0.315309,0.48151000000000005,-2.064576,-1.27756,-2.252054,-2.893122,-1382.8125
38.0,1.0,122.0,-0.39116200000000007,0.1359759999999999,-1.5334879999999997,-0.2037540000000002,0.566292,-1.905056,-1.1243530000000002,-2.011742,-2.718159,-1381.8359
38.0,1.0,123.0,-0.271273,0.026202000000000128,-1.6964260000000002,-0.1903749999999999,0.5900040000000001,-1.8409980000000001,-1.098267,-1.9456069999999996,-2.722708,-1380.8594
38.0,1.0,124.0,-0.283883,-0.1599010000000001,-1.901535,-0.30594500000000013,0.5774880000000001,-1.8122669999999999,-1.137594,-2.056143,-2.7853000000000003,-1379.8828
38.0,1.0,125.0,-0.277639,-0.17206400000000002,-1.932588,-0.24501600000000004,0.5845579999999999,-1.750256,-1.018179,-2.083034,-2.688757,-1378.9063
38.0,1.0,126.0,-0.2204699999999999,-0.03985799999999989,-1.9015060000000004,-0.16019200000000008,0.615415,-1.7413310000000002,-0.9473350000000003,-2.148285,-2.5631880000000002,-1377.9297
38.0,1.0,127.0,0.04075699999999997,0.12107300000000006,-1.681462,-0.008217999999999942,0.8348670000000001,-1.6306100000000001,-0.797964,-2.061482,-2.450941,-1376.9531
38.0,1.0,128.0,0.15209100000000006,0.14728900000000003,-1.6611930000000001,-3.5999999999934976e-05,0.874211,-1.633697,-0.7902410000000001,-2.0852850000000003,-2.548002,-1375.9766
38.0,1.0,129.0,0.282136,0.13851799999999984,-1.6413590000000002,0.08023400000000015,0.9069370000000001,-1.653841,-0.765039,-2.112677,-2.566904,-1375.0
38.0,1.0,130.0,0.3734039999999999,0.25598699999999974,-1.520807,0.29934400000000005,1.0785510000000003,-1.495416,-0.5971150000000001,-1.921185,-2.490044,-1374.0234
38.0,1.0,131.0,0.4214079999999999,0.3730640000000002,-1.306412,0.3652500000000001,1.2762519999999997,-1.306514,-0.47743,-1.8035839999999999,-2.398119,-1373.0469
38.0,1.0,132.0,0.6303969999999999,0.4872339999999997,-1.2271829999999997,0.19890499999999997,1.4572,-1.320261,-0.41583200000000003,-1.810395,-2.344816,-1372.0703
38.0,1.0,133.0,0.695964,0.5476000000000001,-1.284816,0.06781300000000012,1.3442340000000002,-1.534125,-0.597333,-1.856521,-2.451936,-1371.0938
38.0,1.0,134.0,0.7832330000000001,0.7141870000000001,-1.1945599999999998,0.2651920000000001,1.3181990000000001,-1.554855,-0.5975919999999999,-1.8022559999999999,-2.414913,-1370.1172
38.0,1.0,135.0,0.6762239999999999,0.6800609999999999,-1.206268,0.2299570000000001,1.1525130000000001,-1.6662100000000002,-0.5870300000000002,-1.9102780000000001,-2.399248,-1369.1406
38.0,1.0,136.0,0.5931279999999999,0.71549,-1.154062,0.3038839999999998,1.230222,-1.546563,-0.4738980000000001,-1.794691,-2.224694,-1368.1641
38.0,1.0,137.0,0.6414290000000001,0.8913540000000001,-0.9986040000000002,0.35059599999999996,1.295605,-1.4064769999999998,-0.534876,-1.6335439999999999,-2.179065,-1367.1875
38.0,1.0,138.0,0.6155949999999998,0.9959700000000001,-0.9111349999999999,0.233861,1.355158,-1.402312,-0.6267170000000002,-1.516106,-2.1439290000000004,-1366.2109
38.0,1.0,139.0,0.7162999999999998,1.1190630000000001,-0.7750949999999999,0.312715,1.642207,-1.364938,-0.41687899999999994,-1.4207400000000001,-2.015277,-1365.2344
38.0,1.0,140.0,0.970041,1.346062,-0.5986980000000002,0.25866199999999995,1.900043,-1.318658,-0.137434,-1.4426329999999998,-1.7419539999999998,-1364.2578
38.0,1.0,141.0,1.213729,1.586079,-0.49318100000000004,0.30949499999999996,1.959282,-1.204141,-0.006542999999999992,-1.306286,-1.567159,-1363.2813
38.0,1.0,142.0,1.490659,1.8201379999999998,-0.244667,0.486714,2.192963,-1.1425130000000001,0.14464800000000014,-1.175427,-1.3890719999999999,-1362.3047
38.0,1.0,143.0,1.394489,1.857689,-0.09878900000000003,0.47373800000000016,2.36514,-1.3367239999999998,0.3621990000000001,-1.300661,-1.284866,-1361.3281
38.0,1.0,144.0,1.195613,1.8475970000000002,-0.09233599999999989,0.46429400000000015,2.263808,-1.46963,0.40241299999999997,-1.423178,-1.353917,-1360.3516
38.0,1.0,145.0,1.1732609999999999,1.876714,-0.19991399999999995,0.38462399999999985,2.154127,-1.630707,0.27512900000000007,-1.594212,-1.5922699999999999,-1359.375
38.0,1.0,146.0,1.214996,2.0514229999999998,-0.23133199999999995,0.4234960000000001,2.196729,-1.614237,0.1895979999999999,-1.4387459999999999,-1.6869240000000003,-1358.3984
38.0,1.0,147.0,1.198685,2.120777,-0.2753950000000001,0.39043100000000003,1.9614699999999998,-1.6848619999999999,-0.015988999999999826,-1.492013,-1.7941820000000002,-1357.4219
38.0,1.0,148.0,1.2555919999999998,2.049668,-0.4447809999999998,0.3480730000000002,1.540054,-1.757061,-0.464004,-1.644657,-2.006441,-1356.4453
38.0,1.0,149.0,1.3440560000000001,2.0227559999999998,-0.530197,0.42512399999999984,1.4259270000000002,-1.676626,-0.604752,-1.742978,-2.108615,-1355.4688
38.0,1.0,150.0,1.3503900000000002,1.9322469999999998,-0.527881,0.370219,1.286284,-1.766362,-0.57511,-1.9141709999999998,-2.1033190000000004,-1354.4922
38.0,1.0,151.0,1.6560070000000002,2.260914,-0.17532800000000004,0.6173049999999999,1.6726929999999998,-1.492371,-0.08848400000000005,-1.635671,-1.692353,-1353.5156
38.0,1.0,152.0,2.003919,2.5690389999999996,0.06348499999999976,0.8553200000000003,2.178882,-1.273451,0.458774,-1.4226599999999998,-1.3683870000000002,-1352.5391
38.0,1.0,153.0,2.04057,2.648161,0.04136099999999999,0.7941499999999999,2.473429,-1.40394,0.7295609999999997,-1.3811329999999997,-1.2759170000000002,-1351.5625
38.0,1.0,154.0,1.6918150000000003,2.383055,-0.318694,0.4970169999999999,2.265701,-1.72767,0.48448599999999986,-1.6565370000000001,-1.502106,-1350.5859
38.0,1.0,155.0,1.6087790000000002,2.3084439999999997,-0.39499399999999996,0.45767399999999997,2.151107,-1.7823060000000002,0.33449399999999985,-1.7394749999999999,-1.438075,-1349.6094
38.0,1.0,156.0,1.741059,2.2860739999999997,-0.42195600000000005,0.562484,2.043896,-1.650352,0.35823700000000014,-1.5982640000000001,-1.3453359999999999,-1348.6328
38.0,1.0,157.0,1.54965,2.032454,-0.5883489999999999,0.5034529999999999,1.7364339999999998,-1.77904,0.3312649999999998,-1.7140710000000001,-1.477108,-1347.6563
38.0,1.0,158.0,1.5155129999999999,1.986019,-0.46248200000000006,0.5445520000000001,1.716265,-1.6500370000000002,0.25856899999999994,-1.7371889999999999,-1.497622,-1346.6797
38.0,1.0,159.0,1.3135309999999998,1.770642,-0.658328,0.417911,1.5694,-1.790404,-0.21981299999999993,-1.905572,-1.731638,-1345.7031
38.0,1.0,160.0,1.0174999999999998,1.5093079999999999,-1.047452,0.2410540000000001,1.359144,-2.137158,-0.4802090000000003,-2.189731,-1.960814,-1344.7266
38.0,1.0,161.0,0.8466549999999999,1.376155,-1.242812,0.16102300000000014,1.1865709999999998,-2.264675,-0.5871560000000001,-2.333882,-2.187129,-1343.75
38.0,1.0,162.0,0.819078,1.1274050000000002,-1.338381,-0.023160999999999907,1.049545,-2.417738,-0.818843,-2.436848,-2.3526480000000003,-1342.7734
38.0,1.0,163.0,0.96556,1.23274,-1.073982,0.040959,1.272906,-2.234895,-0.6536079999999999,-2.2436900000000004,-2.185821,-1341.7969
38.0,1.0,164.0,0.8304159999999997,1.1949930000000002,-1.0971140000000001,-0.0006260000000000688,1.2884229999999999,-2.045127,-0.554786,-2.156303,-2.141979,-1340.8203
38.0,1.0,165.0,0.7664280000000001,1.196607,-1.044943,0.07499700000000016,1.4289429999999999,-1.8163039999999997,-0.2996470000000001,-2.085273,-1.9472649999999998,-1339.8438
38.0,1.0,166.0,0.8691110000000001,1.3122479999999999,-0.8551049999999999,0.27371499999999993,1.53273,-1.623291,-0.10653199999999999,-2.00556,-1.6850589999999999,-1338.8672
38.0,1.0,167.0,0.9332639999999999,1.291789,-0.8673899999999999,0.28687799999999997,1.4698630000000004,-1.585451,-0.12048000000000016,-1.928272,-1.6492060000000002,-1337.8906
38.0,1.0,168.0,0.8435419999999999,1.1375110000000002,-0.8292290000000001,0.21462499999999984,1.354271,-1.586881,-0.18726900000000007,-1.943129,-1.559129,-1336.9141
38.0,1.0,169.0,0.6816040000000001,1.007329,-0.889392,0.04656399999999983,1.307831,-1.6304389999999997,-0.34355600000000003,-2.077664,-1.6561109999999999,-1335.9375
38.0,1.0,170.0,0.4445440000000003,0.886502,-1.186903,-0.24250800000000017,1.089391,-1.939641,-0.6690300000000002,-2.302055,-2.100152,-1334.9609
38.0,1.0,171.0,0.474729,0.997837,-1.198494,-0.34525299999999987,0.924248,-2.1073519999999997,-0.794982,-2.352286,-2.246457,-1333.9844
38.0,1.0,172.0,0.8068620000000002,1.4697109999999998,-0.7362439999999999,-0.13447599999999998,1.279062,-1.848204,-0.3963419999999999,-2.090774,-1.8550209999999998,-1333.0078
38.0,1.0,173.0,0.7728410000000001,1.671032,-0.558797,-0.08608799999999991,1.3574479999999998,-1.7387019999999997,-0.24170500000000003,-1.9971959999999997,-1.5890680000000001,-1332.0313
38.0,1.0,174.0,0.6840860000000001,1.682955,-0.4701469999999999,0.004104000000000019,1.3525630000000002,-1.673988,-0.09089299999999997,-1.959314,-1.372439,-1331.0547
38.0,1.0,175.0,0.32107399999999997,1.32227,-0.721651,-0.16331800000000005,1.0024790000000001,-1.78725,-0.33891000000000004,-1.9950839999999999,-1.5144069999999998,-1330.0781
38.0,1.0,176.0,-0.02855499999999992,0.9995829999999999,-0.980107,-0.49911799999999995,0.7028690000000002,-2.040486,-0.699237,-2.154767,-1.728572,-1329.1016
38.0,1.0,177.0,0.05211599999999985,1.094296,-0.9232250000000001,-0.46496699999999985,0.7249289999999999,-2.005869,-0.610504,-2.1184,-1.6365960000000002,-1328.125
38.0,1.0,178.0,0.518668,1.4335229999999999,-0.4984789999999999,-0.03321799999999997,1.1026259999999999,-1.72545,-0.30554499999999996,-1.77882,-1.3144920000000002,-1327.1484
38.0,1.0,179.0,0.612168,1.4516669999999998,-0.3791820000000001,0.02218600000000005,1.1396359999999999,-1.748012,-0.3815390000000001,-1.7378460000000002,-1.375719,-1326.1719
38.0,1.0,180.0,0.7895949999999999,1.7293919999999998,0.028083000000000028,0.1845980000000001,1.3120839999999998,-1.398534,-0.22897199999999998,-1.50816,-1.1331479999999998,-1325.1953
38.0,1.0,181.0,1.3465049999999998,2.312002,0.6305089999999999,0.705634,1.843539,-0.8329219999999998,0.17811400000000013,-1.0749959999999998,-0.653351,-1324.2188
38.0,1.0,182.0,1.45104,2.362732,0.6816659999999999,0.8850139999999999,1.9733489999999998,-0.739097,0.24081299999999983,-1.0632959999999998,-0.6196459999999999,-1323.2422
38.0,1.0,183.0,1.259976,2.31236,0.507488,0.8894080000000001,1.7745179999999998,-0.8067789999999999,0.13756199999999996,-1.095171,-0.7285950000000001,-1322.2656
38.0,1.0,184.0,1.257272,2.314966,0.385705,0.8146849999999999,1.644622,-0.7808759999999999,0.0769460000000001,-1.0020930000000001,-0.800663,-1321.2891
38.0,1.0,185.0,1.344895,2.319425,0.3321810000000001,0.7720749999999998,1.552518,-0.7766689999999999,-0.049788000000000034,-1.0379800000000001,-0.834397,-1320.3125
38.0,1.0,186.0,1.6126310000000001,2.46453,0.42601799999999984,1.0166030000000001,1.6265010000000002,-0.6603249999999999,-0.09302399999999991,-0.862685,-0.7008150000000001,-1319.3359
38.0,1.0,187.0,1.658745,2.4781980000000003,0.5746170000000002,1.1595920000000002,1.7060710000000001,-0.490103,-0.056159999999999995,-0.6956549999999999,-0.6569350000000002,-1318.3594
38.0,1.0,188.0,1.28115,2.287149,0.35040999999999994,0.8581570000000001,1.494194,-0.713746,-0.3145420000000001,-0.953787,-0.9925069999999999,-1317.3828
38.0,1.0,189.0,1.3281,2.388329,0.36660899999999996,0.78667,1.66028,-0.7166619999999999,-0.14839899999999998,-0.9966440000000002,-0.9368910000000001,-1316.4063
38.0,1.0,190.0,1.1833330000000002,2.189098,0.20370700000000017,0.6464880000000001,1.514328,-0.883689,-0.20860499999999982,-1.181662,-1.0521189999999998,-1315.4297
38.0,1.0,191.0,0.98982,1.962918,-0.081086,0.43548100000000006,1.2147809999999999,-1.1615280000000001,-0.5843609999999999,-1.4363909999999998,-1.34018,-1314.4531
38.0,1.0,192.0,0.9445600000000001,1.925255,-0.13707799999999998,0.4541519999999999,1.247997,-1.2566530000000002,-0.6937099999999999,-1.4957,-1.4964359999999999,-1313.4766
38.0,1.0,193.0,1.2028139999999998,2.115483,0.08097100000000011,0.6718990000000001,1.566547,-1.1127209999999998,-0.38926600000000006,-1.424362,-1.3067159999999998,-1312.5
38.0,1.0,194.0,1.3808179999999999,2.172835,0.18741000000000002,0.775179,1.608399,-0.9808150000000001,-0.35733400000000004,-1.44291,-1.3328790000000001,-1311.5234
38.0,1.0,195.0,1.412572,2.232705,0.2609049999999997,0.769452,1.538442,-0.922856,-0.48939399999999994,-1.4978550000000002,-1.453113,-1310.5469
38.0,1.0,196.0,1.2568510000000002,2.21549,0.23163300000000003,0.731871,1.3647410000000002,-0.9533079999999999,-0.7092519999999999,-1.527417,-1.5680010000000002,-1309.5703
38.0,1.0,197.0,1.063036,2.1685510000000003,0.3926369999999999,0.8460719999999999,1.2975819999999998,-0.813296,-0.777654,-1.3673590000000002,-1.456491,-1308.5938
38.0,1.0,198.0,1.095082,2.118691,0.5336380000000002,1.044402,1.431525,-0.616107,-0.6406539999999998,-1.230302,-1.277182,-1307.6172
38.0,1.0,199.0,1.500775,2.4940979999999997,0.9293799999999999,1.5559269999999998,1.867788,-0.34265900000000005,-0.24721599999999996,-0.96848,-0.927826,-1306.6406
38.0,1.0,200.0,1.656231,2.6003719999999997,0.983204,1.516662,1.987271,-0.42307399999999995,-0.0825849999999998,-1.0587820000000001,-0.8677170000000001,-1305.6641
38.0,1.0,201.0,1.3149100000000002,2.239564,0.7197579999999999,1.1226260000000001,1.8125040000000001,-0.723095,-0.08646900000000002,-1.366763,-1.127348,-1304.6875
38.0,1.0,202.0,1.267204,2.248171,0.786075,1.183341,1.9768040000000002,-0.667578,0.23694400000000015,-1.2932149999999998,-1.0608330000000001,-1303.7109
38.0,1.0,203.0,1.5151830000000002,2.458519,0.8124019999999998,1.378737,2.229265,-0.5098429999999998,0.4663560000000001,-1.1329539999999998,-0.836775,-1302.7344
38.0,1.0,204.0,1.4383359999999998,2.3442819999999998,0.5980640000000002,1.31458,2.0138540000000003,-0.52933,0.008075999999999866,-1.242537,-0.9581020000000001,-1301.7578
38.0,1.0,205.0,1.3812170000000001,2.321651,0.49180299999999993,1.301993,2.013035,-0.6328970000000002,-0.2248280000000001,-1.3874819999999999,-1.0856500000000002,-1300.7813
38.0,1.0,206.0,1.525025,2.363491,0.42469700000000005,1.267508,2.149541,-0.7578490000000001,-0.11673999999999993,-1.4645400000000002,-1.171069,-1299.8047
38.0,1.0,207.0,1.725468,2.4993800000000004,0.5981220000000002,1.4538069999999998,2.268897,-0.702387,0.09217200000000013,-1.3719489999999999,-0.9921440000000001,-1298.8281
38.0,1.0,208.0,1.668835,2.527686,0.69906,1.506473,2.2084789999999996,-0.6955080000000001,0.13635700000000006,-1.378535,-0.8438249999999998,-1297.8516
38.0,1.0,209.0,1.673271,2.582478,0.7147149999999999,1.4120989999999998,2.116693,-0.7324769999999999,0.226099,-1.492265,-0.7323850000000001,-1296.875
38.0,1.0,210.0,1.600415,2.488185,0.5303299999999999,1.276936,1.967425,-0.989738,0.07489599999999996,-1.6470760000000002,-0.865626,-1295.8984
38.0,1.0,211.0,1.3218619999999999,2.2033259999999997,0.21075300000000013,1.059611,1.6831060000000002,-1.1728299999999998,-0.17186400000000002,-1.728159,-1.107263,-1294.9219
38.0,1.0,212.0,1.1564399999999997,2.0433000000000003,0.01793099999999989,0.9599179999999999,1.5551649999999997,-1.134849,-0.25536699999999996,-1.7402019999999998,-1.232308,-1293.9453
38.0,1.0,213.0,0.9588839999999998,1.874816,-0.2931139999999999,0.85654,1.2976180000000002,-1.1692779999999998,-0.5197200000000001,-1.7669259999999998,-1.4084139999999998,-1292.9688
38.0,1.0,214.0,0.8397589999999999,1.7424000000000002,-0.468809,0.7185399999999998,1.1599,-1.2427549999999998,-0.691596,-1.828849,-1.5388069999999998,-1291.9922
38.0,1.0,215.0,0.813832,1.843913,-0.24181199999999994,0.893356,1.265311,-1.011383,-0.526124,-1.613711,-1.4137279999999999,-1291.0156
38.0,1.0,216.0,0.8274449999999999,1.883188,-0.1361430000000002,0.964413,1.259913,-0.9764769999999998,-0.43072299999999997,-1.6328880000000001,-1.384114,-1290.0391
38.0,1.0,217.0,0.944832,1.9663169999999999,-0.06754599999999991,0.843475,1.3440170000000002,-1.113602,-0.36439400000000005,-1.71034,-1.283719,-1289.0625
38.0,1.0,218.0,0.966889,2.080179,0.13079000000000005,0.775353,1.5031310000000002,-1.0617980000000002,-0.28399599999999997,-1.6106530000000001,-1.136262,-1288.0859
38.0,1.0,219.0,1.071123,2.203247,0.29107999999999984,1.034575,1.4726109999999997,-0.9322400000000001,-0.31258,-1.4832989999999997,-1.079393,-1287.1094
38.0,1.0,220.0,1.2108940000000001,2.290378,0.22713399999999986,1.1374039999999999,1.5397110000000003,-0.9096609999999999,-0.3063430000000001,-1.431912,-1.065598,-1286.1328
38.0,1.0,221.0,1.015462,2.041139,-0.04732800000000014,0.978351,1.405895,-1.016407,-0.5374979999999999,-1.4421369999999998,-1.2378419999999999,-1285.1563
38.0,1.0,222.0,0.7027450000000002,1.625802,-0.40179200000000004,0.730845,1.003573,-1.317012,-0.986178,-1.798182,-1.575463,-1284.1797
38.0,1.0,223.0,0.5963840000000001,1.568568,-0.543209,0.6516879999999999,0.9419449999999999,-1.4022210000000002,-0.915374,-1.8762100000000002,-1.597637,-1283.2031
38.0,1.0,224.0,0.7861059999999999,1.888211,-0.28275,0.975742,1.2158,-1.080153,-0.4636370000000001,-1.587177,-1.319048,-1282.2266
38.0,1.0,225.0,0.976782,2.1811789999999998,-0.06441900000000013,1.4054049999999998,1.35667,-0.7439910000000001,-0.182098,-1.3075210000000002,-1.181548,-1281.25
38.0,1.0,226.0,0.936427,2.080858,-0.22643099999999994,1.438498,1.3564349999999998,-0.7935659999999999,-0.20399199999999992,-1.3216400000000001,-1.302072,-1280.2734
38.0,1.0,227.0,0.733679,1.987209,-0.3907340000000001,1.132016,1.377732,-1.049225,-0.21736400000000003,-1.607491,-1.4540250000000001,-1279.2969
38.0,1.0,228.0,0.7825200000000001,1.9688139999999998,-0.3583380000000001,0.9699900000000001,1.4553989999999999,-1.032145,-0.17976200000000006,-1.6642270000000001,-1.4269070000000001,-1278.3203
38.0,1.0,229.0,0.931206,1.940603,-0.2967849999999998,0.9775830000000001,1.39635,-0.929862,-0.2892380000000001,-1.550435,-1.4254680000000002,-1277.3438
38.0,1.0,230.0,0.6513789999999999,1.6815810000000002,-0.54789,0.7617270000000002,1.0404050000000002,-1.081196,-0.7116849999999999,-1.7419229999999999,-1.684409,-1276.3672
38.0,1.0,231.0,0.319642,1.4516710000000002,-0.7768930000000001,0.5115149999999999,0.7586450000000002,-1.249754,-0.8025930000000001,-1.891961,-1.7382320000000002,-1275.3906
38.0,1.0,232.0,0.203654,1.241872,-0.8217570000000001,0.27175399999999994,0.6432659999999999,-1.3552780000000002,-0.789947,-1.9064769999999998,-1.696301,-1274.4141
38.0,1.0,233.0,0.16267700000000002,1.117183,-0.8531169999999999,0.08855399999999998,0.748656,-1.491192,-0.778581,-1.969966,-1.7357989999999999,-1273.4375
38.0,1.0,234.0,0.1014259999999999,1.0582,-0.9692279999999998,0.12302899999999994,0.7783139999999998,-1.5037869999999998,-0.962817,-2.018363,-1.906628,-1272.4609
38.0,1.0,235.0,0.32615500000000003,1.200826,-0.796679,0.30743299999999985,0.9491320000000001,-1.34976,-0.8714790000000001,-1.96709,-1.756666,-1271.4844
38.0,1.0,236.0,0.4023,1.18907,-0.772625,0.25606000000000007,0.861729,-1.393379,-1.0474129999999997,-2.1147970000000003,-1.798942,-1270.5078
38.0,1.0,237.0,0.2758930000000001,1.0955110000000001,-0.9415459999999999,0.009992000000000107,0.6070840000000001,-1.586131,-1.329135,-2.320892,-1.9856729999999998,-1269.5313
38.0,1.0,238.0,0.022793000000000122,0.8147110000000001,-1.1633559999999998,-0.29968000000000006,0.4766479999999999,-1.82205,-1.384093,-2.447596,-2.154109,-1268.5547
38.0,1.0,239.0,-0.1442860000000001,0.6550770000000001,-1.2583969999999998,-0.3388039999999999,0.3331330000000001,-1.8943979999999998,-1.520113,-2.4180960000000002,-2.3059950000000002,-1267.5781
38.0,1.0,240.0,-0.205763,0.584588,-1.245443,-0.23674500000000007,0.25890100000000005,-1.8156370000000002,-1.566845,-2.341311,-2.4296949999999997,-1266.6016
38.0,1.0,241.0,-0.13123000000000007,0.509081,-1.349383,-0.09681500000000007,0.2277099999999999,-1.770018,-1.658064,-2.380788,-2.53526,-1265.625
38.0,1.0,242.0,0.19685400000000006,0.6769419999999999,-1.1727689999999997,0.019497000000000077,0.49325000000000024,-1.5605849999999999,-1.440309,-2.215446,-2.3170640000000002,-1264.6484
38.0,1.0,243.0,0.44353000000000004,0.929982,-0.971181,0.29908199999999974,0.8233449999999999,-1.3966509999999999,-1.1096240000000002,-1.8913749999999998,-2.092744,-1263.6719
38.0,1.0,244.0,0.3677520000000001,0.8098159999999999,-1.3105290000000003,0.29616600000000004,0.8344530000000003,-1.594032,-1.043994,-2.00954,-2.23655,-1262.6953
38.0,1.0,245.0,0.1160710000000002,0.533641,-1.6720709999999999,0.006841000000000204,0.7445200000000001,-1.838166,-1.1673499999999999,-2.270513,-2.4469149999999997,-1261.7188
38.0,1.0,246.0,0.026525999999999942,0.538988,-1.72353,-0.19327999999999984,0.7399479999999999,-1.997938,-1.199869,-2.392845,-2.497907,-1260.7422
38.0,1.0,247.0,0.140653,0.5705200000000002,-1.7277289999999998,-0.2975960000000001,0.6920769999999998,-1.9655529999999999,-1.303383,-2.412896,-2.530521,-1259.7656
38.0,1.0,248.0,0.15142399999999998,0.6135889999999999,-1.751174,-0.26351599999999986,0.6992769999999999,-2.001335,-1.363215,-2.414689,-2.5269570000000003,-1258.7891
38.0,1.0,249.0,0.20519300000000001,0.632401,-1.68528,-0.170908,0.788532,-1.984282,-1.3297809999999999,-2.419324,-2.4641390000000003,-1257.8125
38.0,1.0,250.0,0.054909000000000194,0.5126779999999997,-1.555722,-0.18068900000000002,0.7855239999999998,-1.9128280000000002,-1.394931,-2.431057,-2.490656,-1256.8359
38.0,1.0,251.0,-0.1944069999999999,0.35309599999999997,-1.634249,-0.4326920000000001,0.36964299999999994,-2.121944,-1.7919239999999999,-2.546493,-2.792762,-1255.8594
38.0,1.0,252.0,-0.10467100000000006,0.41876800000000003,-1.647327,-0.449745,0.1896810000000001,-2.186984,-1.822554,-2.5683920000000002,-2.872323,-1254.8828
38.0,1.0,253.0,0.01816900000000002,0.48349700000000007,-1.458136,-0.3411229999999999,0.19456099999999996,-2.046558,-1.7827520000000001,-2.5375300000000003,-2.7761869999999997,-1253.9063
38.0,1.0,254.0,0.09460700000000025,0.5203620000000001,-1.4544740000000003,-0.256848,0.30220499999999995,-1.9456320000000003,-1.863514,-2.4724369999999998,-2.6860950000000003,-1252.9297
38.0,1.0,255.0,0.12764300000000015,0.718637,-1.3223619999999996,-0.08701999999999996,0.581598,-1.786187,-1.8037060000000003,-2.34401,-2.4803569999999997,-1251.9531
38.0,1.0,256.0,0.12350000000000008,0.771583,-1.336265,-0.06079399999999991,0.553705,-1.7910399999999997,-1.687239,-2.433057,-2.495096,-1250.9766
38.0,1.0,257.0,0.12422199999999993,0.7946249999999999,-1.4249499999999997,-0.1223030000000001,0.5033110000000002,-1.928936,-1.518049,-2.459855,-2.5307779999999998,-1250.0
38.0,1.0,258.0,-0.134321,0.629372,-1.6384880000000002,-0.4170030000000001,0.45630500000000007,-2.137055,-1.5365980000000001,-2.561671,-2.690161,-1249.0234
38.0,1.0,259.0,-0.333787,0.3371450000000001,-1.9637479999999998,-0.663338,0.4521099999999999,-2.376943,-1.715101,-2.82599,-2.971914,-1248.0469
38.0,1.0,260.0,-0.255576,0.3337719999999999,-2.122098,-0.6138870000000001,0.5560769999999999,-2.3423499999999997,-1.587037,-2.871023,-3.0789070000000005,-1247.0703
38.0,1.0,261.0,0.010531999999999897,0.48252100000000003,-2.0171099999999997,-0.523611,0.772631,-2.2358000000000002,-1.3523580000000002,-2.7679089999999995,-2.955855,-1246.0938
38.0,1.0,262.0,0.2862590000000001,0.689401,-1.879384,-0.37642600000000004,0.9516170000000002,-2.1190040000000003,-1.267671,-2.66021,-2.799502,-1245.1172
38.0,1.0,263.0,0.22630900000000004,0.6764140000000001,-1.8906149999999997,-0.3438639999999999,0.8390070000000001,-2.178432,-1.501379,-2.6769849999999997,-2.916139,-1244.1406
38.0,1.0,264.0,-0.011229000000000062,0.513417,-1.991633,-0.316582,0.490275,-2.26761,-1.853212,-2.7304700000000004,-3.184209,-1243.1641
38.0,1.0,265.0,-0.24987199999999996,0.354296,-2.095243,-0.3246339999999999,0.30182200000000015,-2.407092,-1.965642,-2.733559,-3.3659839999999996,-1242.1875
38.0,1.0,266.0,-0.5303950000000001,0.037787999999999974,-2.3007449999999996,-0.538756,-0.036923000000000046,-2.4671819999999998,-2.348881,-2.828354,-3.593823,-1241.2109
38.0,1.0,267.0,-0.681078,0.029655000000000084,-2.301285,-0.5544750000000002,-0.04357900000000019,-2.406286,-2.341028,-2.849745,-3.5817959999999998,-1240.2344
38.0,1.0,268.0,-0.6398350000000002,0.08729100000000002,-2.259489,-0.5267290000000001,0.13118499999999997,-2.344111,-2.1810460000000003,-2.85803,-3.464803,-1239.2578
38.0,1.0,269.0,-0.3298300000000001,0.18578199999999995,-2.1055580000000003,-0.4462280000000001,0.31917000000000006,-2.2243809999999997,-1.907006,-2.839101,-3.2815469999999998,-1238.2813
38.0,1.0,270.0,0.02743899999999994,0.560517,-1.723314,-0.12226700000000004,0.6956749999999999,-1.870637,-1.414401,-2.4671269999999996,-2.98847,-1237.3047
38.0,1.0,271.0,0.10855799999999999,0.6793540000000001,-1.599291,-0.03022399999999994,0.7026420000000002,-1.672434,-1.355684,-2.253545,-2.922586,-1236.3281
38.0,1.0,272.0,-0.073907,0.5345089999999999,-1.750012,-0.014111000000000101,0.615024,-1.7714590000000001,-1.4967789999999999,-2.234069,-3.0167349999999997,-1235.3516
38.0,1.0,273.0,-0.11104199999999988,0.44188500000000003,-1.908679,0.03534599999999998,0.580771,-1.9319460000000002,-1.6276,-2.256819,-3.15457,-1234.375
38.0,1.0,274.0,-0.18536600000000003,0.42910099999999995,-1.942372,-0.027018000000000066,0.38319600000000004,-2.040612,-1.7253729999999998,-2.323459,-3.267174,-1233.3984
38.0,1.0,275.0,-0.2195540000000001,0.46702899999999986,-1.8786139999999998,-0.1568979999999999,0.28277299999999994,-2.064881,-1.644497,-2.419486,-3.172543,-1232.4219
38.0,1.0,276.0,-0.018068000000000133,0.5914119999999999,-1.770702,-0.10794999999999993,0.528676,-1.936974,-1.420531,-2.4160800000000004,-2.948965,-1231.4453
38.0,1.0,277.0,0.11203300000000001,0.761178,-1.5743479999999999,0.15587200000000004,0.889809,-1.736951,-1.0510650000000001,-2.2926659999999996,-2.677933,-1230.4688
38.0,1.0,278.0,0.16238200000000005,0.814601,-1.334252,0.22774199999999986,1.048667,-1.7162720000000002,-0.8721960000000002,-2.419682,-2.5555950000000003,-1229.4922
38.0,1.0,279.0,0.17613100000000018,0.8320780000000002,-1.226527,0.2528869999999999,1.1006570000000002,-1.750694,-0.915785,-2.511344,-2.609159,-1228.5156
38.0,1.0,280.0,0.06286300000000004,0.677065,-1.4013499999999999,0.06270900000000007,0.953635,-1.9544850000000002,-1.120021,-2.667183,-2.792453,-1227.5391
38.0,1.0,281.0,0.018664999999999904,0.595375,-1.558639,0.03099499999999985,0.6545049999999999,-2.026539,-1.5006620000000002,-2.765145,-3.042344,-1226.5625
38.0,1.0,282.0,0.12729900000000008,0.7177119999999998,-1.521648,0.1984010000000001,0.5735279999999999,-1.7781280000000002,-1.5971819999999999,-2.53432,-3.1080060000000005,-1225.5859
38.0,1.0,283.0,0.21969700000000003,0.8249639999999999,-1.32755,0.42947100000000005,0.727527,-1.577743,-1.4584620000000001,-2.252475,-2.856035,-1224.6094
38.0,1.0,284.0,0.49375699999999995,1.278225,-0.953386,0.692585,1.1043120000000002,-1.326884,-1.1219739999999998,-1.958551,-2.4261,-1223.6328
38.0,1.0,285.0,0.651562,1.614311,-0.787098,0.8052389999999999,1.231968,-1.168281,-0.808486,-1.9770919999999998,-2.18498,-1222.6563
38.0,1.0,286.0,0.48498500000000017,1.4974949999999998,-0.9187540000000002,0.599199,1.202354,-1.2613619999999997,-0.764376,-2.1581550000000003,-2.206767,-1221.6797
38.0,1.0,287.0,0.537908,1.412217,-1.029576,0.5367339999999998,1.256432,-1.339572,-0.671785,-2.2867309999999996,-2.1990580000000004,-1220.7031
38.0,1.0,288.0,0.8875330000000001,1.637441,-0.7519800000000001,0.8047739999999999,1.4993880000000002,-1.009322,-0.42511100000000007,-1.992782,-1.944426,-1219.7266
38.0,1.0,289.0,1.299683,1.988805,-0.3893909999999999,1.227225,1.933946,-0.7319330000000001,0.02145299999999999,-1.6478480000000002,-1.67657,-1218.75
38.0,1.0,290.0,1.336639,2.081396,-0.31846100000000016,1.2673699999999999,2.067644,-0.7502489999999998,0.16409700000000005,-1.7243549999999999,-1.621934,-1217.7734
38.0,1.0,291.0,0.896692,1.6917859999999998,-0.7057710000000001,0.7484860000000001,1.5547870000000001,-1.1650319999999998,-0.45886999999999994,-2.140128,-2.107844,-1216.7969
38.0,1.0,292.0,0.606745,1.425662,-0.9362910000000001,0.531475,1.238316,-1.387645,-0.8596489999999997,-2.319506,-2.28115,-1215.8203
38.0,1.0,293.0,0.6678930000000001,1.4663220000000001,-0.8812939999999998,0.724872,1.157608,-1.179179,-0.8863989999999999,-2.212316,-2.204405,-1214.8438
38.0,1.0,294.0,0.8964120000000001,1.6713760000000002,-0.665244,0.9091239999999999,1.15681,-1.020176,-0.9058759999999999,-2.1263419999999997,-2.170199,-1213.8672
38.0,1.0,295.0,0.970745,1.8155010000000003,-0.4835420000000001,0.9436609999999999,1.21429,-0.9743100000000001,-0.8180290000000001,-2.024765,-2.01466,-1212.8906
38.0,1.0,296.0,1.196355,2.0403949999999997,-0.22502900000000003,1.2035270000000002,1.517764,-0.769274,-0.5796350000000001,-1.898625,-1.7630670000000002,-1211.9141
38.0,1.0,297.0,1.3488120000000001,2.0929629999999997,-0.09507899999999993,1.2845579999999999,1.6641959999999998,-0.706988,-0.43698400000000004,-1.8724429999999999,-1.7263500000000003,-1210.9375
38.0,1.0,298.0,1.0620630000000002,1.8789680000000002,-0.292136,1.032383,1.620602,-1.016724,-0.49929800000000013,-2.037137,-1.862835,-1209.9609
38.0,1.0,299.0,0.775239,1.638983,-0.5662180000000001,0.7854419999999999,1.3518500000000002,-1.381612,-0.6665779999999999,-2.355674,-2.160948,-1208.9844
38.0,1.0,300.0,0.5954609999999999,1.44149,-0.708364,0.6232720000000002,1.185825,-1.4641849999999998,-0.8061959999999999,-2.4960129999999996,-2.3524960000000004,-1208.0078
38.0,1.0,301.0,0.31383500000000014,1.233643,-0.876654,0.43451200000000006,0.9414629999999999,-1.401777,-1.057126,-2.5181649999999998,-2.478517,-1207.0313
38.0,1.0,302.0,0.17160800000000007,1.1202670000000001,-0.9497149999999999,0.34054900000000005,0.8001660000000002,-1.346255,-1.1467580000000002,-2.364041,-2.408176,-1206.0547
38.0,1.0,303.0,-0.0004439999999998956,0.9284,-1.11152,0.278324,0.535082,-1.3375620000000001,-1.318311,-2.364656,-2.410508,-1205.0781
38.0,1.0,304.0,-0.12287499999999998,0.8783540000000002,-1.2652700000000001,0.1625380000000001,0.378989,-1.3863079999999999,-1.332206,-2.404031,-2.409787,-1204.1016
38.0,1.0,305.0,0.05403099999999982,1.1238890000000001,-1.04897,0.33922199999999997,0.6314379999999999,-1.338332,-1.004138,-2.317976,-2.145292,-1203.125
38.0,1.0,306.0,0.15525299999999992,1.216927,-0.8477039999999999,0.502164,0.666172,-1.22665,-1.020572,-2.178254,-2.12456,-1202.1484
38.0,1.0,307.0,0.07447099999999995,1.112732,-0.749216,0.4872990000000001,0.512781,-1.2451600000000003,-1.1352499999999999,-2.165166,-2.242118,-1201.1719
38.0,1.0,308.0,0.3088719999999999,1.280341,-0.637254,0.655974,0.677773,-1.2266540000000001,-1.009628,-2.077708,-2.082245,-1200.1953
38.0,1.0,309.0,0.46303300000000014,1.579557,-0.6708469999999999,0.776747,0.92156,-1.236193,-0.850387,-2.028063,-1.8763779999999999,-1199.2188
38.0,1.0,310.0,0.22558400000000003,1.336783,-1.076894,0.5490650000000001,0.67974,-1.528289,-1.1993990000000003,-2.252542,-2.106002,-1198.2422
38.0,1.0,311.0,0.04504000000000009,1.1484269999999999,-1.3554300000000001,0.2167600000000001,0.45154700000000014,-1.762079,-1.550604,-2.5082579999999997,-2.304606,-1197.2656
38.0,1.0,312.0,0.21279399999999998,1.4213909999999998,-1.056185,0.43560800000000016,0.722735,-1.578765,-1.245826,-2.3809299999999998,-2.016683,-1196.2891
38.0,1.0,313.0,0.5227910000000001,1.609353,-0.7593840000000002,0.618378,0.9508160000000002,-1.348217,-0.964882,-2.245566,-1.781403,-1195.3125
38.0,1.0,314.0,0.5440860000000001,1.507882,-0.8198290000000001,0.34186199999999983,0.7878060000000001,-1.486548,-1.1924149999999998,-2.3371690000000003,-1.8670309999999999,-1194.3359
38.0,1.0,315.0,0.552117,1.397882,-0.90802,0.18064900000000017,0.7033840000000001,-1.5880720000000002,-1.1628999999999998,-2.396998,-1.8932740000000001,-1193.3594
38.0,1.0,316.0,0.6794420000000001,1.5169719999999998,-0.7828089999999999,0.32672500000000015,0.7277790000000003,-1.475535,-0.9167909999999999,-2.372612,-1.7311869999999998,-1192.3828
38.0,1.0,317.0,0.5154159999999999,1.381396,-0.6699220000000002,0.268052,0.6763430000000001,-1.46715,-0.97708,-2.4341109999999997,-1.769582,-1191.4063
38.0,1.0,318.0,0.257189,1.136653,-0.7286259999999999,0.04699699999999995,0.5305819999999999,-1.611318,-1.300267,-2.618086,-1.946638,-1190.4297
38.0,1.0,319.0,0.23569500000000018,1.105942,-0.723252,0.053309999999999996,0.4269,-1.628404,-1.4080020000000002,-2.595212,-1.969554,-1189.4531
38.0,1.0,320.0,0.5198420000000001,1.3212199999999998,-0.3580300000000001,0.348669,0.5836689999999998,-1.340854,-1.3292029999999997,-2.269924,-1.645252,-1188.4766
38.0,1.0,321.0,0.740279,1.6041759999999998,-0.196953,0.5363559999999999,0.602771,-1.223182,-1.209725,-2.108218,-1.3799280000000003,-1187.5
38.0,1.0,322.0,0.6515859999999999,1.529771,-0.453009,0.42832799999999993,0.4427920000000001,-1.405991,-1.197284,-2.23827,-1.47239,-1186.5234
38.0,1.0,323.0,0.4351499999999999,1.2043170000000003,-0.8499299999999999,0.1270849999999999,0.35901099999999997,-1.751396,-1.2941820000000002,-2.5926780000000003,-1.7867840000000001,-1185.5469
38.0,1.0,324.0,0.482662,1.24943,-0.9962590000000001,0.11215100000000007,0.4486970000000002,-1.864924,-1.3792000000000002,-2.5978559999999997,-1.8418519999999998,-1184.5703
38.0,1.0,325.0,0.570909,1.440872,-0.8144899999999999,0.119538,0.479935,-1.686851,-1.46986,-2.4099340000000002,-1.74431,-1183.5938
38.0,1.0,326.0,0.599128,1.5611670000000002,-0.6852539999999999,0.09336300000000013,0.631062,-1.563155,-1.351975,-2.3086,-1.681572,-1182.6172
38.0,1.0,327.0,0.568116,1.6483880000000002,-0.760137,0.27878299999999995,0.5944220000000001,-1.344766,-1.311527,-2.067918,-1.631738,-1181.6406
38.0,1.0,328.0,0.6266269999999999,1.6664069999999997,-0.9007350000000001,0.24599000000000007,0.549087,-1.346946,-1.3162809999999998,-2.01752,-1.6229199999999997,-1180.6641
38.0,1.0,329.0,0.5178600000000002,1.590309,-0.955385,0.13113599999999997,0.500306,-1.48583,-1.3149509999999998,-2.109287,-1.654145,-1179.6875
38.0,1.0,330.0,0.1564820000000001,1.368136,-1.171055,-0.12116799999999998,0.1869169999999998,-1.7626240000000002,-1.564682,-2.380578,-1.9221940000000002,-1178.7109
38.0,1.0,331.0,0.046391999999999954,1.2352400000000001,-1.242695,-0.25331299999999995,0.01434600000000005,-2.025567,-1.7491400000000001,-2.699189,-2.080321,-1177.7344
38.0,1.0,332.0,0.10300699999999999,1.128829,-1.1492959999999999,-0.12864100000000003,0.013240999999999956,-1.928394,-1.6342590000000001,-2.685804,-1.9803229999999998,-1176.7578
38.0,1.0,333.0,0.2632159999999999,1.3467000000000002,-0.8442590000000001,0.21721999999999994,0.2715990000000002,-1.688011,-1.29899,-2.434436,-1.6572809999999998,-1175.7813
38.0,1.0,334.0,0.28004700000000005,1.439981,-0.8099200000000001,0.31933799999999996,0.4022400000000001,-1.63178,-1.257664,-2.358051,-1.531876,-1174.8047
38.0,1.0,335.0,0.4990830000000001,1.516915,-0.766387,0.3886770000000002,0.5614869999999998,-1.4753379999999998,-1.147139,-2.170692,-1.42775,-1173.8281
38.0,1.0,336.0,0.4178540000000001,1.5634979999999998,-0.6973,0.33663799999999994,0.5345630000000001,-1.3768109999999998,-1.226898,-2.165182,-1.394442,-1172.8516
38.0,1.0,337.0,0.356243,1.654487,-0.559081,0.459121,0.5884370000000001,-1.126214,-1.1184579999999997,-1.967447,-1.243182,-1171.875
38.0,1.0,338.0,0.5221239999999999,1.7205510000000002,-0.4228009999999999,0.7815459999999999,0.7731900000000002,-0.911478,-0.9463680000000001,-1.762739,-1.047124,-1170.8984
38.0,1.0,339.0,0.4940859999999999,1.654267,-0.47099899999999983,0.8328920000000001,0.866749,-0.9422460000000001,-0.9117489999999999,-1.783313,-1.055732,-1169.9219
38.0,1.0,340.0,0.5466320000000001,1.56072,-0.5987169999999999,0.8642310000000001,0.938132,-1.0075349999999998,-0.898206,-1.7338950000000002,-1.187516,-1168.9453
38.0,1.0,341.0,0.535454,1.571259,-0.637442,0.924011,0.820758,-1.014204,-1.0270590000000002,-1.7119989999999998,-1.3237640000000002,-1167.9688
38.0,1.0,342.0,0.44846300000000006,1.5422380000000002,-0.560068,0.9892300000000002,0.800154,-0.973002,-0.8918650000000001,-1.6978429999999998,-1.252268,-1166.9922
38.0,1.0,343.0,0.36030799999999985,1.564049,-0.34660800000000014,1.031754,0.9107129999999998,-0.879288,-0.658548,-1.685967,-1.10731,-1166.0156
38.0,1.0,344.0,0.5956039999999999,1.8603960000000002,-0.10565099999999993,1.3038210000000001,1.200694,-0.59924,-0.529307,-1.350152,-0.959054,-1165.0391
38.0,1.0,345.0,0.516501,1.8073320000000002,-0.12411699999999991,1.325798,1.0833669999999997,-0.5080939999999999,-0.5982980000000001,-1.345018,-0.9994919999999999,-1164.0625
38.0,1.0,346.0,0.25267000000000017,1.5875299999999999,-0.14083999999999997,1.165244,0.8884810000000002,-0.579524,-0.8154790000000002,-1.4752679999999998,-1.072114,-1163.0859
38.0,1.0,347.0,0.03771500000000005,1.461571,-0.26159800000000005,1.0660640000000001,0.6172430000000001,-0.6764309999999999,-1.1623620000000003,-1.536974,-1.136603,-1162.1094
38.0,1.0,348.0,-0.102223,1.366525,-0.436791,0.9619920000000001,0.5065860000000001,-0.8735400000000001,-1.2174749999999999,-1.7128549999999998,-1.212002,-1161.1328
38.0,1.0,349.0,-0.23984999999999992,1.220054,-0.5298510000000001,0.90262,0.48481900000000006,-0.898288,-1.024254,-1.782813,-1.3628559999999998,-1160.1563
38.0,1.0,350.0,-0.45293,0.969658,-0.7630600000000001,0.8483760000000001,0.369978,-1.0903980000000002,-0.9807950000000001,-1.9882630000000001,-1.4987039999999998,-1159.1797
38.0,1.0,351.0,-0.48575900000000005,0.868811,-0.9219450000000002,0.6778049999999999,0.32537499999999986,-1.300493,-0.8791980000000001,-2.243617,-1.4853150000000002,-1158.2031
38.0,1.0,352.0,-0.7150620000000001,0.703587,-1.139103,0.47421199999999997,0.35110100000000005,-1.4670050000000001,-0.9808690000000001,-2.4674169999999997,-1.691876,-1157.2266
38.0,1.0,353.0,-0.819184,0.7494299999999999,-1.107774,0.5316329999999999,0.36595,-1.34343,-1.145518,-2.335096,-1.79839,-1156.25
38.0,1.0,354.0,-0.7398,0.8267290000000002,-0.9803029999999999,0.6520219999999999,0.26723,-1.2294519999999998,-1.2354709999999998,-2.163474,-1.9379069999999998,-1155.2734
38.0,1.0,355.0,-0.8234440000000001,0.5829260000000002,-1.15604,0.40303,0.12912299999999996,-1.374178,-1.425814,-2.235801,-2.138571,-1154.2969
38.0,1.0,356.0,-1.1566189999999998,0.122332,-1.464623,0.03690600000000015,-0.08832200000000004,-1.634109,-1.7843609999999999,-2.4902420000000003,-2.494666,-1153.3203
38.0,1.0,357.0,-1.4540039999999999,-0.126514,-1.544649,-0.1514469999999999,-0.25477399999999983,-1.721607,-1.950279,-2.701622,-2.6343309999999995,-1152.3438
38.0,1.0,358.0,-1.4876420000000001,-0.0509990000000001,-1.496714,-0.1701670000000001,-0.2961120000000001,-1.664811,-1.9993670000000001,-2.674637,-2.505281,-1151.3672
38.0,1.0,359.0,-1.265295,0.16061299999999995,-1.238482,0.01714600000000001,-0.08975799999999995,-1.380724,-1.8776359999999999,-2.539675,-2.275178,-1150.3906
38.0,1.0,360.0,-0.9550649999999998,0.40690299999999996,-0.949932,0.22974599999999992,0.20974400000000004,-1.0969490000000002,-1.600745,-2.313847,-1.996945,-1149.4141
38.0,1.0,361.0,-0.70723,0.5512260000000001,-0.8000059999999999,0.532204,0.25588700000000014,-0.892568,-1.4909620000000001,-2.1706020000000006,-1.873599,-1148.4375
38.0,1.0,362.0,-0.6435329999999999,0.5519170000000001,-0.6760319999999999,0.579965,0.11311,-0.8476039999999999,-1.524418,-2.1548320000000003,-1.8506380000000002,-1147.4609
38.0,1.0,363.0,-0.7111080000000001,0.546203,-0.7019739999999999,0.380358,0.09357500000000017,-1.0231249999999998,-1.4184510000000001,-2.136462,-1.898601,-1146.4844
38.0,1.0,364.0,-0.7204979999999999,0.515213,-0.6379059999999999,0.35925299999999993,0.2432819999999999,-1.0222520000000002,-1.296437,-2.115742,-1.850555,-1145.5078
38.0,1.0,365.0,-0.479674,0.7194229999999999,-0.504815,0.5156879999999999,0.3368759999999999,-0.837028,-1.3078590000000003,-2.037542,-1.8096020000000002,-1144.5313
38.0,1.0,366.0,-0.453555,0.7107370000000001,-0.5561649999999999,0.5037729999999998,0.2606780000000001,-0.7808889999999999,-1.417749,-2.01181,-1.8144379999999998,-1143.5547
38.0,1.0,367.0,-0.8499889999999999,0.282879,-1.0536230000000002,0.1650080000000003,-0.05408300000000004,-0.9820129999999999,-1.573779,-2.2021550000000003,-2.129729,-1142.5781
38.0,1.0,368.0,-1.201047,-0.08155099999999989,-1.5890119999999999,-0.32260700000000014,-0.47573399999999993,-1.40108,-2.072447,-2.56457,-2.648703,-1141.6016
38.0,1.0,369.0,-1.3264099999999999,-0.23188799999999993,-1.7600750000000003,-0.6560399999999998,-0.6714639999999998,-1.709479,-2.457684,-2.833719,-2.963012,-1140.625
38.0,1.0,370.0,-1.3484530000000001,-0.25406,-1.811265,-0.7736710000000001,-0.6995960000000002,-1.8880599999999998,-2.5611930000000003,-2.965414,-3.081031,-1139.6484
38.0,1.0,371.0,-1.410446,-0.156788,-1.9032159999999998,-0.821327,-0.7606030000000001,-1.9777969999999998,-2.5652729999999995,-3.034142,-3.145709,-1138.6719
38.0,1.0,372.0,-1.462083,-0.2079699999999999,-1.9714340000000001,-0.946088,-0.884803,-2.033859,-2.5741970000000003,-3.063576,-3.284094,-1137.6953
38.0,1.0,373.0,-1.492005,-0.29491099999999987,-2.00819,-1.053731,-0.8087909999999999,-2.1755109999999998,-2.577054,-3.151041,-3.462229,-1136.7188
38.0,1.0,374.0,-1.5056969999999998,-0.328143,-2.143374,-1.115652,-0.778271,-2.353529,-2.803311,-3.2658359999999997,-3.6477019999999998,-1135.7422
38.0,1.0,375.0,-1.3210930000000003,-0.1916190000000001,-2.15485,-1.0686250000000002,-0.946597,-2.282235,-3.1613729999999998,-3.204385,-3.681946,-1134.7656
38.0,1.0,376.0,-1.187041,-0.10509299999999994,-2.17427,-1.086393,-1.064347,-2.232716,-3.329368,-3.192047,-3.770023,-1133.7891
38.0,1.0,377.0,-1.043766,-0.0613529999999999,-2.3242320000000003,-1.112741,-1.100469,-2.404233,-3.346384,-3.3747429999999996,-3.8662059999999996,-1132.8125
38.0,1.0,378.0,-0.7994430000000001,0.12758199999999986,-2.289416,-0.9947109999999999,-0.8859150000000001,-2.417642,-3.130923,-3.474734,-3.82678,-1131.8359
38.0,1.0,379.0,-0.21344500000000002,0.6739660000000001,-1.769077,-0.5793060000000001,-0.24593200000000018,-2.089768,-2.548495,-3.3736520000000003,-3.470111,-1130.8594
38.0,1.0,380.0,0.17755500000000002,1.0674050000000002,-1.3761889999999999,-0.19777700000000015,0.2581359999999999,-1.892748,-2.14013,-3.1845209999999997,-3.228945,-1129.8828
38.0,1.0,381.0,-0.06514500000000009,0.9399580000000001,-1.5058159999999998,-0.3956150000000001,0.003377000000000194,-2.098263,-2.309597,-3.251074,-3.3790679999999997,-1128.9063
38.0,1.0,382.0,-0.23587699999999986,0.676905,-1.6416659999999998,-0.6257090000000001,-0.28321899999999994,-2.350056,-2.504301,-3.4024970000000003,-3.448651,-1127.9297
38.0,1.0,383.0,-0.2963390000000001,0.5625330000000001,-1.6376389999999998,-0.681754,-0.32578300000000004,-2.4226919999999996,-2.3746370000000003,-3.473586,-3.3915589999999995,-1126.9531
38.0,1.0,384.0,-0.20317899999999992,0.641631,-1.685573,-0.625994,-0.275157,-2.422273,-2.262673,-3.513014,-3.3558529999999998,-1125.9766
38.0,1.0,385.0,-0.045504999999999886,0.8258230000000001,-1.618292,-0.4695259999999999,-0.028068000000000135,-2.309957,-2.1094929999999996,-3.4274709999999997,-3.228622,-1125.0
38.0,1.0,386.0,-0.05443000000000001,0.6034539999999999,-1.656635,-0.560305,-0.12230199999999983,-2.332578,-2.160475,-3.499007,-3.395008,-1124.0234
38.0,1.0,387.0,-0.21168899999999988,0.2678559999999999,-1.7761310000000001,-0.638698,-0.379453,-2.423981,-2.3852,-3.622624,-3.560677,-1123.0469
38.0,1.0,388.0,0.046539000000000004,0.549729,-1.674026,-0.3551670000000001,-0.341138,-2.2445269999999997,-2.30645,-3.444498,-3.3971250000000004,-1122.0703
38.0,1.0,389.0,0.24675899999999992,0.661288,-1.6225800000000001,-0.28636999999999996,-0.250774,-2.1872190000000002,-2.172882,-3.431384,-3.431089,-1121.0938
38.0,1.0,390.0,0.20372600000000013,0.549874,-1.6526340000000002,-0.40247000000000005,-0.22136499999999987,-2.206547,-2.09457,-3.4969900000000003,-3.545813,-1120.1172
38.0,1.0,391.0,0.11654899999999985,0.41415599999999986,-1.768081,-0.5042209999999997,-0.351871,-2.194093,-2.2621089999999997,-3.389854,-3.6110719999999996,-1119.1406
38.0,1.0,392.0,0.145288,0.4601850000000001,-1.711956,-0.36747599999999975,-0.24839900000000012,-2.11047,-2.137305,-3.21272,-3.4555610000000003,-1118.1641
38.0,1.0,393.0,0.346811,0.7253040000000002,-1.4755329999999998,-0.1268789999999999,-0.1053100000000001,-1.872989,-1.8463079999999998,-2.98616,-3.229466,-1117.1875
38.0,1.0,394.0,0.471943,0.8150300000000001,-1.440638,-0.002965999999999985,0.13031500000000018,-1.7490160000000003,-1.515531,-2.799175,-3.0460309999999997,-1116.2109
38.0,1.0,395.0,0.42880500000000005,0.83318,-1.389193,0.17085499999999992,0.11610899999999998,-1.7090179999999997,-1.379497,-2.779782,-2.968148,-1115.2344
38.0,1.0,396.0,0.3384910000000002,0.8013380000000002,-1.283751,0.14607900000000007,-0.055732,-1.710386,-1.5291059999999999,-2.8735609999999996,-3.0571159999999997,-1114.2578
38.0,1.0,397.0,0.188765,0.6678020000000001,-1.3922919999999999,-0.0021099999999998962,-0.22579300000000002,-1.8093100000000002,-1.789192,-2.988727,-3.2302230000000005,-1113.2813
38.0,1.0,398.0,0.05717499999999992,0.5721419999999999,-1.4353539999999998,0.014895000000000077,-0.25233299999999986,-1.804991,-1.902026,-3.0047390000000003,-3.2851049999999997,-1112.3047
38.0,1.0,399.0,0.05504200000000004,0.459959,-1.5127339999999998,-0.012783999999999995,-0.348655,-1.781824,-1.990523,-3.0470919999999997,-3.2896859999999997,-1111.3281
38.0,1.0,400.0,-0.031979000000000035,0.3249169999999999,-1.759148,0.08755899999999983,-0.5355219999999999,-1.802863,-2.22512,-3.1111739999999997,-3.4461740000000005,-1110.3516
38.0,1.0,401.0,-0.005275000000000078,0.4301979999999998,-1.764289,0.30675099999999994,-0.5746860000000001,-1.7101080000000002,-2.372603,-3.048904,-3.518399,-1109.375
38.0,1.0,402.0,0.27312700000000006,0.8660450000000001,-1.321411,0.562134,-0.267203,-1.455223,-2.032223,-2.7851999999999997,-3.254013,-1108.3984
38.0,1.0,403.0,0.426692,1.1713689999999999,-0.972015,0.649801,0.030100999999999774,-1.2601030000000002,-1.738843,-2.592392,-2.983922,-1107.4219
38.0,1.0,404.0,0.35251,1.084914,-0.9768630000000001,0.5383879999999999,-0.04901999999999994,-1.322354,-1.8777569999999997,-2.6825940000000004,-3.03791,-1106.4453
38.0,1.0,405.0,0.30913700000000005,0.9375989999999997,-1.0538720000000001,0.43176500000000007,-0.10334999999999987,-1.43739,-1.8941320000000001,-2.7838209999999997,-3.1729770000000004,-1105.4688
38.0,1.0,406.0,0.4021510000000001,1.07745,-0.88023,0.4347319999999999,0.03689999999999973,-1.3694150000000003,-1.796621,-2.7819580000000004,-3.053909,-1104.4922
38.0,1.0,407.0,0.6012320000000001,1.343428,-0.533755,0.6910689999999999,0.19416000000000008,-1.0382540000000002,-1.7515859999999999,-2.534773,-2.779006,-1103.5156
38.0,1.0,408.0,0.5685359999999999,1.331213,-0.47033299999999995,0.851663,0.23683000000000007,-0.9139779999999998,-1.738563,-2.395203,-2.7133800000000003,-1102.5391
38.0,1.0,409.0,0.7273840000000001,1.296899,-0.390353,1.0821779999999999,0.48665799999999976,-0.6351550000000001,-1.4446109999999999,-2.197063,-2.547237,-1101.5625
38.0,1.0,410.0,0.9899390000000001,1.4480870000000001,-0.2692960000000001,1.1508980000000002,0.7497720000000001,-0.49457899999999994,-1.296884,-2.012113,-2.4385559999999997,-1100.5859
38.0,1.0,411.0,1.0258620000000003,1.5724559999999999,-0.15374700000000005,1.195955,0.688516,-0.4541279999999999,-1.3365890000000002,-2.050659,-2.342403,-1099.6094
38.0,1.0,412.0,1.308486,1.8215979999999998,0.0965889999999998,1.4429219999999998,0.8502899999999998,-0.25782700000000003,-1.188816,-1.929948,-1.9908480000000004,-1098.6328
38.0,1.0,413.0,1.443057,2.02996,0.33229800000000026,1.611192,1.0114999999999998,-0.008741000000000127,-0.953436,-1.6732470000000002,-1.6974089999999997,-1097.6563
38.0,1.0,414.0,1.0945299999999998,1.833034,0.14115399999999995,1.371268,0.8178009999999999,-0.20154600000000006,-1.023424,-1.850326,-1.91383,-1096.6797
38.0,1.0,415.0,0.6761179999999999,1.590062,-0.07911399999999999,1.017101,0.41302300000000003,-0.45844999999999986,-1.1270669999999996,-2.1142760000000003,-2.19435,-1095.7031
38.0,1.0,416.0,0.5723929999999999,1.638341,-0.013497000000000146,0.9699359999999999,0.3848800000000001,-0.43833800000000006,-1.008543,-2.126359,-2.121997,-1094.7266
38.0,1.0,417.0,0.683676,1.6359350000000001,-0.07070600000000014,1.03443,0.49797899999999984,-0.49340100000000015,-0.9212100000000001,-2.1975409999999997,-2.087646,-1093.75
38.0,1.0,418.0,0.5436020000000001,1.4091109999999998,-0.3554439999999998,0.971986,0.2297249999999999,-0.6588310000000002,-1.22364,-2.369736,-2.217123,-1092.7734
38.0,1.0,419.0,0.45406899999999983,1.169994,-0.465807,0.8897059999999999,0.1965929999999999,-0.8302570000000001,-1.3703469999999998,-2.498492,-2.2481780000000002,-1091.7969
38.0,1.0,420.0,0.495094,1.084165,-0.3982920000000001,0.7600399999999999,0.30220100000000005,-0.8891069999999999,-1.343528,-2.597793,-2.211408,-1090.8203
38.0,1.0,421.0,0.6740649999999999,0.9896310000000001,-0.5017539999999999,0.645359,0.40225400000000006,-0.9355420000000001,-1.2206610000000002,-2.6709210000000003,-2.204429,-1089.8438
38.0,1.0,422.0,0.760088,0.891483,-0.6740220000000001,0.504139,0.42331,-0.9939550000000001,-1.078263,-2.696664,-2.158615,-1088.8672
38.0,1.0,423.0,0.5616579999999999,0.8133980000000001,-0.762793,0.3792369999999998,0.3717389999999999,-1.1058419999999998,-1.077419,-2.833337,-2.263426,-1087.8906
38.0,1.0,424.0,0.37332599999999994,0.6169760000000002,-0.9225240000000001,0.246388,0.28336199999999995,-1.268567,-1.1394410000000001,-2.998037,-2.422354,-1086.9141
38.0,1.0,425.0,0.282188,0.4535039999999999,-1.151583,0.05582599999999996,0.3052890000000001,-1.5227789999999999,-1.176092,-3.158162,-2.433936,-1085.9375
38.0,1.0,426.0,0.3257650000000001,0.513797,-1.1771189999999998,0.18325099999999986,0.27007000000000014,-1.579052,-1.22276,-3.1284089999999996,-2.325685,-1084.9609
38.0,1.0,427.0,0.5731839999999999,0.779662,-0.9372079999999999,0.504647,0.28127800000000014,-1.311735,-1.1166140000000002,-2.8892109999999995,-2.135863,-1083.9844
38.0,1.0,428.0,0.8378260000000001,0.9916440000000002,-0.720495,0.674044,0.45545199999999986,-1.157275,-0.8038370000000001,-2.7639620000000003,-1.914633,-1083.0078
38.0,1.0,429.0,0.8484329999999999,1.09323,-0.7025769999999999,0.6615700000000001,0.4608550000000001,-1.178647,-0.574008,-2.803093,-1.80436,-1082.0313
38.0,1.0,430.0,0.711929,1.0657610000000002,-0.633764,0.5271659999999999,0.43024900000000016,-1.1509880000000001,-0.5626890000000001,-2.930113,-1.770582,-1081.0547
38.0,1.0,431.0,0.5758080000000001,0.7778260000000004,-0.8006740000000001,0.3681279999999999,0.2386240000000001,-1.2803390000000001,-0.8594029999999999,-3.1752179999999997,-1.960032,-1080.0781
38.0,1.0,432.0,0.355955,0.5611910000000001,-1.0492970000000001,0.24599100000000007,0.07411899999999982,-1.524228,-1.0710110000000002,-3.318682,-2.272684,-1079.1016
38.0,1.0,433.0,0.30135399999999996,0.5211799999999998,-1.119463,0.23743999999999998,0.08336100000000016,-1.5670769999999998,-1.05577,-3.232271,-2.2759910000000003,-1078.125
38.0,1.0,434.0,0.21009799999999995,0.50836,-1.175568,0.22798599999999986,0.03906099999999993,-1.510891,-1.041483,-3.28373,-2.184729,-1077.1484
38.0,1.0,435.0,-0.12477900000000003,0.36918800000000007,-1.359909,0.04890400000000003,-0.015861999999999883,-1.736661,-1.15096,-3.396138,-2.1817480000000002,-1076.1719
38.0,1.0,436.0,-0.335976,0.13914899999999997,-1.526038,-0.2636249999999999,-0.1053219999999999,-1.959669,-1.240855,-3.527855,-2.28486,-1075.1953
38.0,1.0,437.0,-0.43644199999999983,0.09205000000000002,-1.561387,-0.5028819999999999,-0.26188600000000006,-2.179487,-1.33317,-3.814565,-2.3608729999999998,-1074.2188
38.0,1.0,438.0,-0.4402180000000001,0.2716660000000001,-1.397226,-0.5102570000000002,-0.1978360000000001,-2.104729,-1.193188,-3.831241,-2.170252,-1073.2422
38.0,1.0,439.0,-0.150704,0.4887119999999999,-1.196073,-0.13457800000000028,0.13230599999999965,-1.9720419999999999,-0.8469530000000001,-3.6883,-1.942443,-1072.2656
38.0,1.0,440.0,0.07118499999999989,0.606256,-1.162529,0.09329099999999997,0.251653,-1.890998,-0.8127179999999998,-3.715898,-1.840415,-1071.2891
38.0,1.0,441.0,0.2864580000000002,0.7281930000000001,-0.9889160000000001,0.26655700000000027,0.1490290000000001,-1.7767789999999999,-0.930774,-3.702912,-1.835125,-1070.3125
38.0,1.0,442.0,0.174058,0.697422,-0.8400460000000001,0.2737589999999999,0.051602000000000016,-1.6693639999999998,-1.009576,-3.6776690000000003,-1.924839,-1069.3359
38.0,1.0,443.0,0.018015000000000062,0.713946,-0.7513209999999999,0.22265999999999997,0.09507599999999997,-1.672894,-1.031949,-3.68478,-1.962003,-1068.3594
38.0,1.0,444.0,-0.05890899999999984,0.778606,-0.769269,0.18793499999999994,0.07327300000000013,-1.695803,-1.198526,-3.7504809999999997,-2.109444,-1067.3828
38.0,1.0,445.0,-0.323322,0.592501,-0.8947590000000001,0.08495299999999989,-0.08774100000000004,-1.8276050000000001,-1.3134079999999997,-3.8840269999999997,-2.230207,-1066.4063
38.0,1.0,446.0,-0.496832,0.4733139999999999,-0.9867900000000001,-0.05571699999999991,-0.23761100000000007,-2.01946,-1.440153,-3.939983,-2.296917,-1065.4297
38.0,1.0,447.0,-0.37711500000000003,0.628767,-0.995156,-0.023526000000000095,-0.266667,-2.005391,-1.566174,-3.808567,-2.233633,-1064.4531
38.0,1.0,448.0,-0.2733639999999999,0.834646,-0.82881,0.14762700000000006,-0.153564,-1.809022,-1.466035,-3.688456,-2.00717,-1063.4766
38.0,1.0,449.0,-0.15045099999999997,1.0266349999999997,-0.7271029999999999,0.28553499999999987,0.11088099999999992,-1.739681,-1.120341,-3.484991,-1.7949039999999998,-1062.5
38.0,1.0,450.0,-0.3629670000000001,0.7963939999999999,-0.9577889999999998,0.098777,-0.12173899999999988,-1.9041759999999999,-1.245375,-3.581504,-1.8921260000000002,-1061.5234
38.0,1.0,451.0,-0.634139,0.48169199999999995,-1.1722009999999998,-0.2163600000000001,-0.4381309999999998,-2.064683,-1.3887750000000003,-3.8523259999999997,-2.055274,-1060.5469
38.0,1.0,452.0,-0.6642630000000002,0.35252799999999995,-1.325335,-0.2789539999999999,-0.5464190000000001,-2.092712,-1.3897349999999997,-3.904783,-2.1135159999999997,-1059.5703
38.0,1.0,453.0,-0.5642119999999999,0.5649029999999998,-1.1998570000000002,0.028690999999999925,-0.46327799999999997,-1.834507,-1.410738,-3.609409,-1.9490360000000002,-1058.5938
38.0,1.0,454.0,-0.7466079999999999,0.5099039999999999,-1.132131,0.05896999999999999,-0.681487,-1.796212,-1.714864,-3.6348789999999997,-2.087466,-1057.6172
38.0,1.0,455.0,-0.794795,0.3652409999999999,-1.049746,-0.01535200000000005,-0.745031,-1.8656289999999998,-1.8130620000000002,-3.7510320000000004,-2.273982,-1056.6406
38.0,1.0,456.0,-0.734061,0.304642,-1.0129599999999999,-0.06941499999999991,-0.5956239999999999,-1.9538140000000002,-1.743294,-3.727926,-2.298286,-1055.6641
38.0,1.0,457.0,-0.5873900000000001,0.3474170000000001,-0.8160280000000002,0.1187769999999998,-0.435,-1.8542970000000003,-1.63411,-3.543463,-2.111527,-1054.6875
38.0,1.0,458.0,-0.722139,0.27889200000000003,-0.9412549999999998,0.033941000000000006,-0.517071,-1.937951,-1.8595280000000003,-3.600664,-2.206296,-1053.7109
38.0,1.0,459.0,-0.781251,0.21023799999999995,-0.9990509999999999,-0.1266770000000001,-0.5346470000000001,-1.956437,-1.898596,-3.6077410000000003,-2.115622,-1052.7344
38.0,1.0,460.0,-0.542436,0.392626,-0.9041089999999999,0.11228300000000001,-0.3840239999999999,-1.8354150000000002,-1.702517,-3.471955,-1.995941,-1051.7578
38.0,1.0,461.0,-0.37239499999999987,0.42764599999999997,-0.954991,0.269416,-0.36787500000000006,-1.8726230000000001,-1.624509,-3.470154,-2.05262,-1050.7813
38.0,1.0,462.0,-0.31782099999999985,0.386997,-0.8992010000000001,0.32168199999999986,-0.2858480000000001,-1.8276670000000002,-1.5410249999999999,-3.565645,-1.950104,-1049.8047
38.0,1.0,463.0,-0.3007999999999998,0.4428659999999997,-0.8017730000000001,0.34064999999999995,-0.12410900000000007,-1.712504,-1.310438,-3.5804020000000003,-1.812158,-1048.8281
38.0,1.0,464.0,-0.3213390000000001,0.5251939999999999,-0.8356170000000002,0.2784089999999999,0.04011099999999997,-1.683573,-1.3628069999999999,-3.441026,-1.7999769999999997,-1047.8516
38.0,1.0,465.0,-0.206774,0.553051,-0.7819650000000001,0.3031420000000001,0.04434000000000001,-1.7708919999999997,-1.456162,-3.4354250000000004,-1.791047,-1046.875
38.0,1.0,466.0,-0.38499899999999987,0.40704,-0.8223379999999999,0.169659,-0.159938,-1.8939599999999999,-1.4820529999999998,-3.564871,-1.906812,-1045.8984
38.0,1.0,467.0,-0.616636,0.1458100000000001,-1.0531220000000001,-0.11328199999999995,-0.337196,-2.134266,-1.6428679999999998,-3.834563,-2.1785490000000003,-1044.9219
38.0,1.0,468.0,-0.44719499999999995,0.1791449999999999,-0.919802,0.07989900000000011,-0.23296600000000012,-2.084692,-1.710984,-3.851943,-2.149292,-1043.9453
38.0,1.0,469.0,-0.612971,-0.021248000000000003,-1.230807,0.05317200000000018,-0.4244469999999999,-2.284572,-2.0034189999999996,-4.083687,-2.485395,-1042.9688
38.0,1.0,470.0,-1.00779,-0.4131250000000001,-1.694928,-0.442043,-0.7453700000000001,-2.685525,-2.284873,-4.419122,-2.870686,-1041.9922
38.0,1.0,471.0,-0.856781,-0.24677800000000003,-1.49857,-0.463199,-0.6194689999999998,-2.7038390000000003,-2.1762550000000003,-4.349926,-2.7185989999999998,-1041.0156
38.0,1.0,472.0,-0.621675,-0.017785000000000082,-1.3794060000000001,-0.320031,-0.51287,-2.609307,-2.004032,-4.248175,-2.546208,-1040.0391
38.0,1.0,473.0,-0.7395740000000001,-0.16417100000000012,-1.589602,-0.43810099999999985,-0.6332469999999998,-2.7146179999999998,-2.03239,-4.349973,-2.604162,-1039.0625
38.0,1.0,474.0,-1.0110299999999999,-0.44245599999999996,-1.77911,-0.648964,-0.7583190000000001,-2.835104,-2.082492,-4.568371,-2.714425,-1038.0859
38.0,1.0,475.0,-1.2567110000000001,-0.645984,-1.9835619999999998,-0.737808,-0.8919429999999999,-2.8929020000000003,-2.443217,-4.751753,-3.0845789999999997,-1037.1094
38.0,1.0,476.0,-1.399546,-0.713117,-2.036771,-0.8301360000000001,-0.9449160000000001,-2.9248309999999997,-2.608949,-4.852803,-3.349628,-1036.1328
38.0,1.0,477.0,-1.595178,-0.9521619999999998,-2.223151,-1.10768,-1.0192109999999999,-3.0376139999999996,-2.710863,-4.984282,-3.4728429999999997,-1035.1563
38.0,1.0,478.0,-1.6309129999999998,-0.9516730000000001,-2.171371,-1.0310359999999998,-0.9822420000000001,-3.035317,-2.649737,-4.915061,-3.345367,-1034.1797
38.0,1.0,479.0,-1.59137,-0.9607559999999998,-2.157741,-0.966817,-0.938475,-2.868408,-2.602525,-4.750292,-3.291039,-1033.2031
38.0,1.0,480.0,-1.8528590000000003,-1.2335319999999999,-2.454716,-1.128985,-1.050203,-2.8717610000000002,-2.667192,-4.795144,-3.526812,-1032.2266
38.0,1.0,481.0,-2.060701,-1.387313,-2.50236,-1.1497540000000002,-1.115615,-2.775984,-2.702275,-4.74841,-3.5973490000000004,-1031.25
38.0,1.0,482.0,-1.8445449999999999,-1.17649,-2.1849979999999998,-0.785619,-0.7346779999999997,-2.50452,-2.29389,-4.365009,-3.259031,-1030.2734
38.0,1.0,483.0,-1.734053,-0.9596329999999998,-2.096579,-0.7536369999999999,-0.5629900000000001,-2.569078,-2.023667,-4.32267,-3.111875,-1029.2969
38.0,1.0,484.0,-1.822352,-0.9702339999999999,-2.185871,-0.847205,-0.753275,-2.7199220000000004,-2.110913,-4.4255889999999996,-3.200773,-1028.3203
38.0,1.0,485.0,-1.841154,-0.962489,-2.234967,-0.9817139999999999,-0.8536420000000001,-2.756403,-2.16626,-4.419014000000001,-3.3103309999999997,-1027.3438
38.0,1.0,486.0,-1.617385,-0.681835,-1.980393,-0.8505280000000002,-0.7340790000000001,-2.462253,-2.060048,-4.219443,-3.187095,-1026.3672
38.0,1.0,487.0,-1.464093,-0.499862,-1.834146,-0.7260199999999999,-0.7012740000000001,-2.3750839999999998,-2.213498,-4.106939,-3.180082,-1025.3906
38.0,1.0,488.0,-1.364491,-0.39852899999999997,-1.8295080000000001,-0.6855569999999999,-0.7025590000000002,-2.418658,-2.256374,-4.118124,-3.1281829999999995,-1024.4141
38.0,1.0,489.0,-1.2226569999999999,-0.15396499999999996,-1.836198,-0.6860590000000001,-0.5636229999999999,-2.3829890000000002,-1.970234,-4.0379570000000005,-3.056947,-1023.4375
38.0,1.0,490.0,-0.9576640000000001,0.15440800000000002,-1.572412,-0.5284719999999998,-0.330677,-2.1584890000000003,-1.7011209999999999,-3.7792450000000004,-2.7742539999999996,-1022.4609
38.0,1.0,491.0,-0.9844740000000001,0.0643269999999999,-1.5378119999999997,-0.6241149999999999,-0.5782570000000001,-2.160441,-1.83314,-3.6714539999999998,-2.7234730000000003,-1021.4844
38.0,1.0,492.0,-1.067869,-0.14239700000000013,-1.60635,-0.8702570000000001,-0.712884,-2.308681,-2.137978,-3.7174030000000005,-2.828791,-1020.5078
38.0,1.0,493.0,-1.221333,-0.2836570000000001,-1.835197,-1.076344,-0.824787,-2.568324,-2.4665280000000003,-3.9362909999999998,-3.053934,-1019.5313
38.0,1.0,494.0,-1.10516,-0.2043160000000001,-1.7553450000000002,-1.042206,-0.8607079999999999,-2.474623,-2.6475350000000004,-3.963283,-3.1839969999999997,-1018.5547
38.0,1.0,495.0,-1.168085,-0.3787359999999999,-1.787869,-1.1838550000000003,-0.845648,-2.574894,-2.7885809999999998,-4.070099,-3.2179970000000004,-1017.5781
38.0,1.0,496.0,-1.0364,-0.31341100000000016,-1.627714,-1.0326220000000002,-0.5031320000000001,-2.5428,-2.509005,-3.997278,-3.029247,-1016.6016
38.0,1.0,497.0,-0.9734360000000001,-0.2613840000000001,-1.562434,-0.98823,-0.5021479999999999,-2.406126,-2.468041,-3.9871770000000004,-3.0072419999999997,-1015.625
38.0,1.0,498.0,-1.05433,-0.25849100000000014,-1.665608,-1.043922,-0.645232,-2.419167,-2.6615710000000004,-4.008472,-3.085885,-1014.6484
38.0,1.0,499.0,-0.82324,0.04037700000000001,-1.6143290000000001,-0.750813,-0.453495,-2.213318,-2.4901790000000004,-3.768886,-2.9750929999999998,-1013.6719
38.0,1.0,500.0,-0.516949,0.343579,-1.479556,-0.42480899999999994,-0.219617,-2.104865,-2.314847,-3.6232130000000002,-2.822711,-1012.6953
38.0,1.0,501.0,-0.467568,0.1809709999999999,-1.629307,-0.5098269999999999,-0.3545489999999998,-2.330843,-2.519391,-3.872398,-3.012964,-1011.7188
38.0,1.0,502.0,-0.513896,0.031358999999999956,-1.7774820000000002,-0.6052240000000001,-0.573354,-2.512317,-2.7875229999999998,-4.147497,-3.255894,-1010.7422
38.0,1.0,503.0,-0.278633,0.24153399999999992,-1.6213069999999998,-0.492148,-0.3394160000000001,-2.392017,-2.608034,-4.076004,-3.099365,-1009.7656
38.0,1.0,504.0,-0.10746399999999998,0.3256949999999999,-1.5073150000000002,-0.43480499999999994,-0.13098500000000016,-2.254856,-2.4056960000000003,-3.9881860000000002,-2.9366200000000005,-1008.7891
38.0,1.0,505.0,-0.009068999999999914,0.40651399999999993,-1.4152270000000002,-0.22162800000000005,0.01884999999999991,-2.142159,-2.148181,-3.9070400000000003,-2.8213310000000003,-1007.8125
38.0,1.0,506.0,0.10067500000000006,0.36980599999999997,-1.4116499999999998,-0.12137599999999996,0.09419600000000003,-2.141269,-2.120759,-3.890866,-2.856284,-1006.8359
38.0,1.0,507.0,-0.13763499999999992,0.08924800000000001,-1.5697140000000003,-0.12132899999999987,-0.18599599999999988,-2.173401,-2.439261,-3.91874,-3.076661,-1005.8594
38.0,1.0,508.0,-0.316607,0.10430800000000005,-1.39751,-0.04704199999999991,-0.25801000000000013,-2.1078010000000003,-2.575456,-3.9416700000000002,-3.0877749999999997,-1004.8828
38.0,1.0,509.0,-0.149471,0.5211200000000001,-0.978463,0.253154,0.16531599999999996,-1.840604,-2.219044,-3.756972,-2.7594550000000004,-1003.9063
38.0,1.0,510.0,0.09983399999999999,0.8402620000000001,-0.7252510000000001,0.43615899999999996,0.611452,-1.604956,-1.748789,-3.529812,-2.462384,-1002.9297
38.0,1.0,511.0,0.2501649999999999,0.9693599999999999,-0.62039,0.3544559999999998,0.7884070000000001,-1.5811190000000002,-1.5507999999999997,-3.5579039999999997,-2.387296,-1001.9531
38.0,1.0,512.0,0.11403199999999991,0.953914,-0.7260509999999999,0.335645,0.636991,-1.6200660000000002,-1.652496,-3.5931729999999997,-2.604327,-1000.9766
38.0,1.0,513.0,0.07785699999999991,0.8369669999999999,-0.858553,0.465737,0.4272439999999999,-1.5274800000000002,-1.867998,-3.5519420000000004,-2.746983,-1000.0
38.0,1.0,514.0,0.34188100000000005,0.8726870000000001,-0.782425,0.700094,0.487928,-1.390603,-1.680851,-3.449563,-2.65395,-999.0234
38.0,1.0,515.0,0.21529199999999993,0.6525700000000001,-0.8091509999999998,0.5851120000000002,0.37773499999999993,-1.457776,-1.7816029999999998,-3.405855,-2.747944,-998.0469
38.0,1.0,516.0,0.07674499999999995,0.6377359999999999,-0.7757990000000001,0.6015999999999999,0.14487500000000014,-1.435858,-1.8194590000000002,-3.3583550000000004,-2.738714,-997.0703
38.0,1.0,517.0,0.150004,0.8710250000000002,-0.600238,0.7337499999999997,0.12222899999999999,-1.324724,-1.6927329999999998,-3.177137,-2.599147,-996.0938
38.0,1.0,518.0,0.4310130000000001,1.2507080000000002,-0.23729400000000006,1.179448,0.5236699999999997,-0.9242100000000002,-1.3387889999999998,-2.718761,-2.2524870000000004,-995.1172
38.0,1.0,519.0,0.556731,1.496354,-0.09017500000000002,1.3949790000000002,0.8570980000000001,-0.737173,-0.941738,-2.51148,-2.012113,-994.1406
38.0,1.0,520.0,0.4488700000000001,1.564358,-0.132741,1.387608,0.87091,-0.834146,-0.874445,-2.645679,-1.9716060000000002,-993.1641
38.0,1.0,521.0,0.635795,1.673724,0.07127600000000002,1.462241,1.01608,-0.6848519999999999,-0.7143090000000001,-2.6199310000000002,-1.780798,-992.1875
38.0,1.0,522.0,0.6359159999999999,1.701838,0.25076400000000015,1.439615,1.058758,-0.6197189999999999,-0.609861,-2.67018,-1.6779670000000002,-991.2109
38.0,1.0,523.0,0.7740680000000002,1.95025,0.57059,1.653665,1.372813,-0.3826879999999999,-0.39958799999999994,-2.612136,-1.513996,-990.2344
38.0,1.0,524.0,1.0034359999999998,2.131473,0.7566900000000001,1.886386,1.702586,-0.16199999999999984,-0.21070700000000003,-2.4691129999999997,-1.2781539999999998,-989.2578
38.0,1.0,525.0,0.9241259999999998,2.158283,0.7687219999999999,2.116209,1.6738439999999999,-0.030214000000000022,-0.23058899999999993,-2.260113,-1.149105,-988.2813
38.0,1.0,526.0,0.392182,1.912905,0.5749810000000001,1.9017410000000001,1.222047,-0.14438800000000004,-0.6520579999999999,-2.39489,-1.372604,-987.3047
38.0,1.0,527.0,0.07742299999999996,1.547717,0.24151299999999998,1.454769,0.8234239999999999,-0.345288,-0.886308,-2.520076,-1.624186,-986.3281
38.0,1.0,528.0,-0.13934500000000008,1.289424,-0.0849820000000001,1.045071,0.5340919999999999,-0.599087,-0.94666,-2.58575,-1.8248550000000001,-985.3516
38.0,1.0,529.0,-0.4634689999999999,0.892597,-0.447258,0.847912,0.19302499999999997,-0.7192380000000002,-1.1132870000000001,-2.6709050000000003,-2.066714,-984.375
38.0,1.0,530.0,-0.458755,0.8744219999999998,-0.515496,0.946957,0.253369,-0.600116,-1.061929,-2.588168,-2.078135,-983.3984
38.0,1.0,531.0,-0.3526480000000001,0.923178,-0.418547,1.0075519999999998,0.30197699999999994,-0.543164,-1.0872110000000001,-2.509933,-1.9752970000000003,-982.4219
38.0,1.0,532.0,-0.31614799999999993,0.947586,-0.30962900000000015,1.091372,0.22053299999999992,-0.3572990000000001,-1.1593829999999998,-2.3802369999999997,-1.864401,-981.4453
38.0,1.0,533.0,-0.24331200000000006,1.007895,-0.12451299999999979,1.1043830000000001,0.16467300000000015,-0.25994800000000007,-1.1685290000000002,-2.346223,-1.6553269999999998,-980.4688
38.0,1.0,534.0,-0.2242900000000001,0.934943,-0.11146600000000002,0.935781,0.30339800000000006,-0.3460199999999999,-1.075686,-2.499441,-1.4624000000000001,-979.4922
38.0,1.0,535.0,-0.40628,0.7957,-0.4004319999999999,0.737658,0.317281,-0.5628079999999998,-1.026649,-2.554994,-1.595993,-978.5156
38.0,1.0,536.0,-0.5721219999999999,0.5861939999999998,-0.6995669999999999,0.7136179999999999,0.18677299999999974,-0.7094059999999999,-1.062571,-2.536139,-1.855502,-977.5391
38.0,1.0,537.0,-0.5857840000000001,0.5603810000000002,-0.576618,0.7868780000000001,0.12107700000000006,-0.660292,-1.2357799999999999,-2.50474,-1.8737760000000003,-976.5625
38.0,1.0,538.0,-0.4459819999999998,0.7092909999999999,-0.416693,0.8361750000000001,0.06483499999999989,-0.620861,-1.425216,-2.477665,-1.832031,-975.5859
38.0,1.0,539.0,-0.517833,0.7302170000000001,-0.43211999999999995,0.861361,0.0018330000000000846,-0.5761449999999999,-1.532559,-2.423712,-1.782297,-974.6094
38.0,1.0,540.0,-0.7118310000000001,0.535707,-0.569689,0.689986,-0.17954300000000004,-0.5658129999999998,-1.610462,-2.512653,-1.7052370000000001,-973.6328
38.0,1.0,541.0,-0.9480699999999999,0.2446750000000001,-0.940612,0.216547,-0.678301,-0.8820859999999999,-2.043321,-2.859684,-1.9580759999999997,-972.6563
38.0,1.0,542.0,-1.355906,-0.1686360000000001,-1.3361649999999998,-0.13153399999999998,-1.0181850000000001,-1.225652,-2.6594939999999996,-3.050747,-2.361274,-971.6797
38.0,1.0,543.0,-1.508402,-0.5326930000000001,-1.4915729999999998,-0.2957550000000001,-1.043951,-1.3436350000000001,-2.7291730000000003,-2.991062,-2.4754579999999997,-970.7031
38.0,1.0,544.0,-1.446188,-0.505167,-1.3128849999999996,-0.31174499999999994,-0.880899,-1.324136,-2.4240930000000005,-2.8480630000000002,-2.2246249999999996,-969.7266
38.0,1.0,545.0,-1.5270989999999998,-0.5356169999999999,-1.291601,-0.37323000000000006,-0.9287419999999998,-1.282666,-2.348293,-2.848056,-2.0939829999999997,-968.75
38.0,1.0,546.0,-1.496987,-0.5625240000000001,-1.131092,-0.32082000000000016,-0.9827459999999999,-1.342642,-2.310365,-2.932319,-2.065722,-967.7734
38.0,1.0,547.0,-1.501773,-0.6217189999999999,-1.096546,-0.329193,-1.1042150000000002,-1.512302,-2.4506789999999996,-3.035606,-2.231452,-966.7969
38.0,1.0,548.0,-1.61035,-0.7734789999999999,-1.4168809999999998,-0.5578210000000001,-1.386449,-1.721366,-2.7225349999999997,-3.239646,-2.506402,-965.8203
38.0,1.0,549.0,-1.6623860000000001,-0.9131689999999999,-1.506641,-0.6860910000000001,-1.422929,-1.854444,-2.839165,-3.418215,-2.607004,-964.8438
38.0,1.0,550.0,-1.432517,-0.8829729999999998,-1.3870930000000001,-0.6270120000000001,-1.3522390000000002,-1.880765,-2.76429,-3.470091,-2.513068,-963.8672
38.0,1.0,551.0,-1.6047140000000002,-0.99063,-1.427746,-0.7708770000000001,-1.297373,-2.0636799999999997,-2.713386,-3.478879,-2.512411,-962.8906
38.0,1.0,552.0,-1.578314,-0.973953,-1.46516,-0.821281,-1.073984,-2.104769,-2.4307250000000002,-3.4553570000000002,-2.4929430000000004,-961.9141
38.0,1.0,553.0,-1.291509,-0.8130819999999999,-1.384132,-0.714001,-0.7234950000000001,-2.0467750000000002,-2.017596,-3.389397,-2.237179,-960.9375
38.0,1.0,554.0,-0.9920929999999999,-0.5737570000000001,-1.3326859999999998,-0.555409,-0.477779,-1.8956460000000002,-1.8993179999999998,-3.3046339999999996,-2.021885,-959.9609
38.0,1.0,555.0,-0.866145,-0.4714259999999999,-1.324524,-0.42858799999999997,-0.36193000000000014,-1.793589,-1.828632,-3.2857260000000004,-1.93425,-958.9844
38.0,1.0,556.0,-0.77259,-0.3663170000000001,-1.28094,-0.27132499999999987,-0.18447400000000003,-1.703784,-1.759313,-3.122237,-1.9012209999999998,-958.0078
38.0,1.0,557.0,-0.8187080000000002,-0.30909,-1.128242,-0.0993169999999999,-0.25307499999999994,-1.661624,-1.877548,-3.014729,-1.8585590000000003,-957.0313
38.0,1.0,558.0,-0.944204,-0.49193499999999996,-1.2360589999999998,-0.12518799999999994,-0.5229779999999998,-1.735033,-2.094817,-3.098109,-1.8795610000000003,-956.0547
38.0,1.0,559.0,-1.142506,-0.632399,-1.4066079999999999,-0.2852619999999999,-0.633801,-1.7742580000000001,-2.142637,-3.142431,-1.8136809999999999,-955.0781
38.0,1.0,560.0,-1.13825,-0.571344,-1.3219470000000002,-0.3125069999999999,-0.5352169999999998,-1.652532,-1.938702,-3.092835,-1.636867,-954.1016
38.0,1.0,561.0,-0.931333,-0.45622700000000016,-1.127619,-0.24544900000000003,-0.288238,-1.6025189999999998,-1.631315,-3.098166,-1.56997,-953.125
38.0,1.0,562.0,-0.9241720000000001,-0.393552,-1.0144130000000002,-0.05976499999999997,-0.093484,-1.563989,-1.377103,-3.039274,-1.592744,-952.1484
38.0,1.0,563.0,-1.008909,-0.39953999999999984,-1.0205349999999997,0.257104,-0.123411,-1.441626,-1.3030140000000001,-2.830002,-1.593375,-951.1719
38.0,1.0,564.0,-1.060214,-0.46489100000000005,-0.9552849999999999,0.41403199999999996,-0.12900399999999998,-1.341453,-1.2168439999999998,-2.77617,-1.490476,-950.1953
38.0,1.0,565.0,-1.2190310000000002,-0.812764,-1.2309779999999997,0.2504819999999999,-0.3690929999999999,-1.579385,-1.4218540000000002,-3.092967,-1.710983,-949.2188
38.0,1.0,566.0,-1.446927,-1.103572,-1.685638,-0.13018199999999996,-0.6622429999999998,-1.952105,-1.739212,-3.555436,-2.106064,-948.2422
38.0,1.0,567.0,-1.517219,-1.106444,-1.6615790000000001,-0.22985699999999987,-0.5784600000000001,-2.049616,-1.7571990000000002,-3.7152789999999998,-2.103852,-947.2656
38.0,1.0,568.0,-1.6688819999999998,-1.033714,-1.6374110000000002,-0.23276500000000006,-0.626446,-2.014355,-1.940751,-3.622803,-2.1127629999999997,-946.2891
38.0,1.0,569.0,-1.644387,-0.913861,-1.570191,-0.11633599999999998,-0.7612830000000002,-1.949903,-1.9196619999999998,-3.606173,-2.039892,-945.3125
38.0,1.0,570.0,-1.485303,-0.7544479999999999,-1.6205550000000002,-0.015884,-0.7791510000000001,-1.8860409999999999,-1.831881,-3.59769,-1.9560559999999998,-944.3359
38.0,1.0,571.0,-1.441042,-0.7879629999999999,-1.6221459999999999,0.05669999999999993,-0.7221509999999999,-1.917141,-1.949792,-3.574743,-1.9879390000000001,-943.3594
38.0,1.0,572.0,-1.561457,-0.804547,-1.6783009999999998,-0.013216000000000179,-0.723544,-1.9160329999999999,-2.110767,-3.619763,-2.0230799999999998,-942.3828
38.0,1.0,573.0,-1.59697,-0.802106,-1.716321,-0.027761999999999957,-0.82033,-1.841925,-2.327314,-3.6315280000000003,-2.040668,-941.4063
38.0,1.0,574.0,-1.6232549999999997,-0.6888929999999999,-1.625385,0.07037799999999979,-0.8693110000000001,-1.866575,-2.512498,-3.718517,-2.096947,-940.4297
38.0,1.0,575.0,-1.835828,-0.768013,-1.7455870000000002,-0.16200299999999992,-0.9716819999999999,-2.1763470000000003,-2.587343,-3.908925,-2.209073,-939.4531
38.0,1.0,576.0,-1.827663,-0.806091,-1.86632,-0.4097429999999999,-0.9752979999999998,-2.331962,-2.503962,-4.121531999999999,-2.265446,-938.4766
38.0,1.0,577.0,-1.8622999999999998,-0.7569959999999999,-1.8991239999999998,-0.4125789999999999,-1.0823230000000001,-2.312733,-2.336034,-4.191923,-2.227044,-937.5
38.0,1.0,578.0,-1.866248,-0.858428,-2.047054,-0.3623760000000001,-1.319404,-2.331493,-2.302281,-4.121608,-2.285459,-936.5234
38.0,1.0,579.0,-1.872262,-0.8478950000000002,-2.123364,-0.32106899999999994,-1.334052,-2.3269629999999997,-2.233061,-4.092938,-2.256082,-935.5469
38.0,1.0,580.0,-1.9528369999999997,-0.8818170000000001,-2.219661,-0.41506400000000004,-1.35493,-2.4402749999999997,-2.3425190000000002,-4.272373,-2.369193,-934.5703
38.0,1.0,581.0,-1.635846,-0.7588119999999999,-2.133341,-0.2538319999999999,-1.2809409999999999,-2.405822,-2.350367,-4.239672,-2.239886,-933.5938
38.0,1.0,582.0,-1.60691,-0.699691,-2.138383,-0.3943130000000001,-1.205989,-2.456976,-2.361189,-4.304715,-2.1223940000000003,-932.6172
38.0,1.0,583.0,-1.8095510000000001,-0.9488210000000001,-2.354984,-0.6218549999999999,-1.367321,-2.705057,-2.537169,-4.55187,-2.40411,-931.6406
38.0,1.0,584.0,-1.801677,-0.900883,-2.517681,-0.6693870000000003,-1.358431,-2.920772,-2.620994,-4.717348,-2.6372160000000004,-930.6641
38.0,1.0,585.0,-1.3547339999999999,-0.5764069999999999,-2.251046,-0.44017199999999995,-1.108408,-2.677502,-2.441544,-4.516614000000001,-2.499769,-929.6875
38.0,1.0,586.0,-1.134423,-0.3595830000000001,-2.017823,-0.23200099999999999,-1.01784,-2.515095,-2.330396,-4.315748,-2.424093,-928.7109
38.0,1.0,587.0,-1.3308600000000002,-0.43339,-2.154916,-0.430755,-1.0649300000000002,-2.622751,-2.4228989999999997,-4.453046,-2.548388,-927.7344
38.0,1.0,588.0,-1.2617889999999998,-0.390388,-2.20899,-0.5616789999999999,-0.9743239999999999,-2.622813,-2.511404,-4.4492899999999995,-2.4857850000000004,-926.7578
38.0,1.0,589.0,-1.15736,-0.29172299999999995,-2.044036,-0.49768500000000004,-0.9673830000000001,-2.481174,-2.602699,-4.2806169999999995,-2.430068,-925.7813
38.0,1.0,590.0,-1.15334,-0.352632,-2.147554,-0.49928399999999995,-1.1328040000000001,-2.588059,-2.890292,-4.3894839999999995,-2.7233620000000003,-924.8047
38.0,1.0,591.0,-1.260021,-0.550476,-2.3802700000000003,-0.667141,-1.4478559999999998,-2.854853,-3.1872640000000003,-4.6772659999999995,-3.016211,-923.8281
38.0,1.0,592.0,-1.118703,-0.3861500000000001,-2.2203209999999998,-0.593003,-1.3659080000000001,-2.7154359999999995,-3.092944,-4.584315,-2.876628,-922.8516
38.0,1.0,593.0,-0.9204019999999998,-0.179383,-2.0480590000000003,-0.5551060000000002,-1.113604,-2.653681,-2.689013,-4.5061860000000005,-2.688527,-921.875
38.0,1.0,594.0,-0.849264,-0.10173099999999989,-2.02331,-0.579807,-0.8962910000000001,-2.692414,-2.468814,-4.508112,-2.69499,-920.8984
38.0,1.0,595.0,-0.6913819999999998,0.04522899999999996,-1.832282,-0.4049859999999999,-0.732612,-2.489414,-2.434412,-4.33451,-2.649576,-919.9219
38.0,1.0,596.0,-0.12133100000000009,0.3818939999999999,-1.3356430000000001,-0.017452000000000075,-0.358915,-2.1232059999999997,-2.177516,-4.068416,-2.3362030000000003,-918.9453
38.0,1.0,597.0,0.17069399999999998,0.6070380000000001,-1.200372,0.05803200000000015,-0.09141300000000015,-2.090002,-2.033774,-4.021255,-2.344091,-917.9688
38.0,1.0,598.0,0.22731099999999999,0.541297,-1.309949,0.05157599999999994,-0.026420999999999993,-2.187296,-2.220945,-4.129739,-2.577751,-916.9922
38.0,1.0,599.0,0.520413,0.757581,-1.151593,0.33905,0.2221130000000001,-2.038762,-2.1566729999999996,-3.9024469999999996,-2.464554,-916.0156
38.0,1.0,600.0,0.713088,0.9018419999999999,-0.9420910000000002,0.58702,0.4136690000000002,-1.687814,-2.088165,-3.583588,-2.420201,-915.0391
38.0,1.0,601.0,0.335139,0.599108,-1.214824,0.2765660000000001,0.18762800000000027,-1.6901680000000001,-2.339684,-3.653316,-2.7086559999999995,-914.0625
38.0,1.0,602.0,0.11564099999999998,0.5331410000000001,-1.3136400000000001,0.24336,-0.12868299999999983,-1.728418,-2.572729,-3.7289760000000003,-2.950182,-913.0859
38.0,1.0,603.0,0.2312460000000001,0.567467,-1.209779,0.5372300000000001,-0.10397300000000008,-1.6245079999999998,-2.5565529999999996,-3.6595530000000003,-3.0421940000000003,-912.1094
38.0,1.0,604.0,0.29003799999999985,0.586447,-1.1005209999999999,0.7655439999999999,0.14987800000000015,-1.5750690000000003,-2.3505160000000003,-3.6138,-3.016785,-911.1328
38.0,1.0,605.0,0.424212,0.8659819999999998,-0.8365760000000002,1.0807,0.31784100000000004,-1.3164479999999998,-2.222778,-3.3902409999999996,-2.9001210000000004,-910.1563
38.0,1.0,606.0,0.6588339999999999,1.0790350000000002,-0.571835,1.287833,0.40529999999999994,-1.1218150000000002,-2.414994,-3.293014,-2.838935,-909.1797
38.0,1.0,607.0,0.5541369999999999,0.8630159999999999,-0.6089709999999999,1.276634,0.37489999999999996,-1.1807590000000001,-2.652975,-3.3580959999999997,-2.961463,-908.2031
38.0,1.0,608.0,0.17634799999999987,0.5762899999999999,-0.7108280000000002,1.098229,-0.010253999999999852,-1.351489,-2.9523519999999994,-3.492537,-3.1670079999999996,-907.2266
38.0,1.0,609.0,0.2734809999999999,0.7626080000000001,-0.5361049999999998,1.294379,0.062268999999999936,-1.116757,-2.774678,-3.374441,-3.050283,-906.25
38.0,1.0,610.0,0.46462100000000006,0.979651,-0.27392399999999995,1.514646,0.3660799999999999,-0.8410600000000001,-2.416242,-3.094469,-2.852896,-905.2734
38.0,1.0,611.0,0.697134,1.232182,-0.05264600000000012,1.71905,0.673768,-0.5369560000000001,-2.105029,-2.8157389999999998,-2.698684,-904.2969
38.0,1.0,612.0,0.837128,1.3146680000000002,0.014498999999999986,1.8990850000000001,0.7671819999999998,-0.34290699999999996,-1.9619749999999998,-2.695988,-2.622074,-903.3203
38.0,1.0,613.0,0.7637809999999999,1.1706999999999999,-0.142111,1.769705,0.7371010000000001,-0.4743939999999999,-1.968185,-2.906611,-2.735554,-902.3438
38.0,1.0,614.0,0.7316099999999999,1.100035,-0.32970199999999994,1.714692,0.7257640000000001,-0.615565,-1.9856559999999999,-3.057054,-2.850749,-901.3672
38.0,1.0,615.0,0.953018,1.2876150000000002,-0.19329699999999994,2.072082,0.833726,-0.3856169999999999,-1.8839979999999996,-2.941066,-2.716406,-900.3906
38.0,1.0,616.0,1.2977400000000001,1.648668,0.13334899999999997,2.45804,0.9661029999999999,0.05082499999999993,-1.641521,-2.593324,-2.532535,-899.4141
38.0,1.0,617.0,1.5821439999999998,1.87625,0.34306100000000006,2.719223,1.0855249999999999,0.374866,-1.556304,-2.319696,-2.3930689999999997,-898.4375
38.0,1.0,618.0,1.5347970000000002,1.6861739999999998,0.3799560000000001,2.715824,1.207246,0.3738890000000001,-1.444412,-2.284284,-2.3136840000000003,-897.4609
38.0,1.0,619.0,1.6833929999999997,1.719821,0.5761859999999999,2.707298,1.3559139999999998,0.32794999999999996,-1.4601169999999999,-2.3834410000000004,-2.274746,-896.4844
38.0,1.0,620.0,1.8276189999999999,1.778604,0.5872400000000002,2.8087549999999997,1.367543,0.3822399999999998,-1.4694569999999998,-2.393339,-2.282928,-895.5078
38.0,1.0,621.0,1.590908,1.7232070000000002,0.3236080000000001,2.768175,1.1874040000000001,0.24602799999999994,-1.4948810000000001,-2.500638,-2.489329,-894.5313
38.0,1.0,622.0,1.362503,1.548553,0.10855399999999987,2.6741590000000004,0.9606179999999999,0.07670100000000002,-1.5642850000000001,-2.6003559999999997,-2.737633,-893.5547
38.0,1.0,623.0,1.0671190000000002,1.1691849999999997,-0.04895700000000017,2.331289,0.703507,-0.21199199999999999,-1.78738,-2.813119,-3.0147160000000004,-892.5781
38.0,1.0,624.0,0.888586,0.9732850000000001,-0.1510320000000002,2.11728,0.5507989999999999,-0.24280999999999994,-1.907405,-2.8321609999999997,-3.166132,-891.6016
38.0,1.0,625.0,0.8124079999999998,0.9715519999999997,-0.18489000000000005,2.125898,0.45005199999999995,-0.213742,-1.968145,-2.862508,-3.1544260000000004,-890.625
38.0,1.0,626.0,0.8328490000000001,0.9801389999999999,-0.14247699999999994,2.0838870000000003,0.43827399999999983,-0.24743999999999983,-2.005447,-2.873838,-3.0933580000000003,-889.6484
38.0,1.0,627.0,0.8528259999999999,0.9159040000000002,-0.010928000000000097,2.108147,0.61707,-0.1078460000000002,-1.660386,-2.775664,-2.852505,-888.6719
38.0,1.0,628.0,1.0099939999999998,1.085945,0.18183099999999988,2.1851380000000002,0.8583320000000001,-0.07582500000000002,-1.441403,-2.637355,-2.5781509999999996,-887.6953
38.0,1.0,629.0,0.9297059999999999,1.035505,0.155225,2.071218,0.750564,-0.1873980000000002,-1.532888,-2.610499,-2.604871,-886.7188
38.0,1.0,630.0,0.8441320000000002,0.866,0.07215099999999997,1.9656120000000001,0.58995,-0.19773899999999997,-1.651563,-2.656895,-2.588062,-885.7422
38.0,1.0,631.0,1.113887,1.137308,0.32472300000000004,2.249511,0.818553,0.09028699999999996,-1.413002,-2.3716359999999996,-2.2350470000000002,-884.7656
38.0,1.0,632.0,1.1933699999999998,1.3563760000000002,0.33923999999999976,2.2906109999999997,1.0926460000000002,0.1415850000000001,-1.1501,-2.235601,-2.075009,-883.7891
38.0,1.0,633.0,1.013986,1.166596,0.03307199999999986,1.957936,0.9539700000000002,-0.10461600000000003,-1.020215,-2.3635269999999995,-2.146901,-882.8125
38.0,1.0,634.0,0.812058,1.051437,-0.310752,1.5907390000000001,0.7959529999999999,-0.44446399999999997,-1.054951,-2.567747,-2.258401,-881.8359
38.0,1.0,635.0,0.6105559999999999,0.971623,-0.5647760000000001,1.1429079999999998,0.8068979999999999,-0.8522569999999999,-1.085005,-2.928394,-2.393701,-880.8594
38.0,1.0,636.0,0.5295400000000005,0.984052,-0.593559,0.9076669999999997,0.920141,-1.04016,-1.044874,-3.041042,-2.408167,-879.8828
38.0,1.0,637.0,0.6217159999999998,1.081354,-0.559303,0.9760930000000002,0.840885,-1.049818,-1.207366,-3.1030780000000004,-2.3119639999999997,-878.9063
38.0,1.0,638.0,0.6026049999999998,0.9516539999999999,-0.633772,0.9541359999999999,0.6451520000000001,-1.182014,-1.515241,-3.322464,-2.366232,-877.9297
38.0,1.0,639.0,0.47888600000000003,0.7538359999999998,-0.8679700000000001,0.6640950000000001,0.4790099999999998,-1.4971020000000002,-1.75701,-3.636316,-2.60915,-876.9531
38.0,1.0,640.0,0.688007,1.06305,-0.656887,0.811716,0.557412,-1.201869,-1.644816,-3.3611009999999997,-2.463779,-875.9766
38.0,1.0,641.0,0.7019370000000003,1.154369,-0.505536,0.7540389999999998,0.5084919999999997,-1.1995459999999998,-1.7459390000000001,-3.402713,-2.4416349999999998,-875.0
38.0,1.0,642.0,0.7625039999999998,1.076643,-0.5674179999999999,0.6398970000000002,0.44978699999999994,-1.4306489999999998,-1.874546,-3.7192000000000003,-2.595793,-874.0234
38.0,1.0,643.0,0.8609399999999999,1.018321,-0.6100140000000001,0.814785,0.28361299999999995,-1.3675,-1.8992540000000002,-3.7154570000000002,-2.536625,-873.0469
38.0,1.0,644.0,1.019201,1.109131,-0.5743459999999999,1.0550429999999997,0.3967429999999998,-1.204859,-1.8117930000000002,-3.542611,-2.404845,-872.0703
38.0,1.0,645.0,1.25129,1.336937,-0.32314800000000005,1.231653,0.579019,-1.1278139999999999,-1.7647050000000002,-3.468155,-2.253478,-871.0938
38.0,1.0,646.0,1.1812589999999998,1.337585,-0.23824499999999993,1.149005,0.627366,-1.2445210000000002,-1.7006120000000002,-3.6528620000000003,-2.2153860000000005,-870.1172
38.0,1.0,647.0,1.08543,1.342089,-0.20474400000000006,1.0603989999999999,0.730321,-1.308122,-1.6734599999999997,-3.746397,-2.21416,-869.1406
38.0,1.0,648.0,0.9708550000000001,1.3690799999999999,-0.23005100000000006,1.158868,0.7835690000000003,-1.2116660000000001,-1.716671,-3.644187,-2.196419,-868.1641
38.0,1.0,649.0,1.2462179999999998,1.626233,0.017585999999999834,1.359705,1.0655270000000001,-1.0931449999999998,-1.393591,-3.4804860000000004,-1.923223,-867.1875
38.0,1.0,650.0,1.553171,1.8068990000000003,0.2855680000000002,1.565162,1.1897450000000003,-1.021156,-1.104417,-3.3449199999999997,-1.673013,-866.2109
38.0,1.0,651.0,1.816834,2.108287,0.579392,1.8502819999999998,1.32234,-0.864506,-0.9128879999999999,-3.16041,-1.401824,-865.2344
38.0,1.0,652.0,1.9517099999999998,2.2591200000000002,0.6650230000000001,1.9627169999999998,1.463179,-0.7027209999999999,-0.719032,-3.055864,-1.264459,-864.2578
38.0,1.0,653.0,1.863828,2.325701,0.681827,2.028485,1.5019069999999999,-0.4899760000000001,-0.705646,-2.920688,-1.280136,-863.2813
38.0,1.0,654.0,1.7125380000000001,2.436915,0.680144,2.078705,1.3309900000000001,-0.3524730000000001,-0.914356,-2.8310950000000004,-1.436928,-862.3047
38.0,1.0,655.0,1.726179,2.443884,0.6940949999999998,1.947369,1.2284009999999999,-0.39504999999999996,-1.013762,-2.8379540000000003,-1.5282650000000002,-861.3281
38.0,1.0,656.0,1.858827,2.484664,0.820518,2.068603,1.376484,-0.28822999999999993,-0.8575019999999999,-2.775155,-1.3446960000000001,-860.3516
38.0,1.0,657.0,1.980786,2.6606110000000003,0.975799,2.2860780000000003,1.5308950000000001,-0.07690299999999993,-0.6163270000000002,-2.494389,-1.118601,-859.375
38.0,1.0,658.0,1.8443709999999998,2.4874110000000003,0.9019149999999999,2.079479,1.348185,-0.14736000000000005,-0.8215350000000001,-2.5779580000000006,-1.282196,-858.3984
38.0,1.0,659.0,1.4752260000000001,2.304407,0.7357639999999998,1.831778,1.113829,-0.3215610000000001,-0.8681749999999999,-2.73584,-1.404263,-857.4219
38.0,1.0,660.0,1.219919,2.134582,0.6889940000000001,1.667071,1.0479640000000001,-0.451434,-1.0247199999999999,-2.7843470000000003,-1.39745,-856.4453
38.0,1.0,661.0,1.2851830000000002,2.176562,0.771924,1.786687,1.2017849999999999,-0.34459199999999995,-1.0400750000000003,-2.667628,-1.2894990000000002,-855.4688
38.0,1.0,662.0,1.3214259999999998,2.08531,0.746218,1.8316350000000003,1.26108,-0.3278150000000001,-0.8303060000000001,-2.5267150000000003,-1.121703,-854.4922
38.0,1.0,663.0,1.2615359999999998,1.964943,0.7316419999999999,1.648229,1.248437,-0.394191,-0.5015560000000001,-2.4548520000000003,-0.9146400000000001,-853.5156
38.0,1.0,664.0,1.2553359999999998,1.9726329999999999,0.7577109999999998,1.701196,1.241527,-0.25299499999999997,-0.43462600000000007,-2.417409,-0.761054,-852.5391
38.0,1.0,665.0,1.220025,1.8598050000000002,0.769324,1.799118,1.296297,-0.13574500000000003,-0.40722200000000003,-2.340664,-0.707284,-851.5625
38.0,1.0,666.0,0.967436,1.713533,0.657982,1.685498,1.141303,-0.30149999999999993,-0.6243810000000001,-2.512573,-0.896842,-850.5859
38.0,1.0,667.0,0.6953090000000002,1.4814139999999998,0.45132199999999967,1.666615,0.861289,-0.39665300000000003,-0.87157,-2.5708119999999997,-1.058572,-849.6094
38.0,1.0,668.0,0.697916,1.4058939999999998,0.6374570000000002,1.89238,0.9527160000000002,-0.307436,-0.909715,-2.3648420000000003,-0.930841,-848.6328
38.0,1.0,669.0,0.628658,1.304459,0.8058590000000001,1.9843779999999998,1.145443,-0.163039,-0.7906399999999999,-2.199757,-0.8373880000000001,-847.6563
38.0,1.0,670.0,0.391209,1.184634,0.6814990000000002,1.8293620000000002,1.128456,-0.172286,-0.8220399999999999,-2.219909,-0.808655,-846.6797
38.0,1.0,671.0,0.3794039999999999,1.226213,0.6911570000000001,1.761224,1.135635,-0.10993200000000006,-0.869363,-2.149313,-0.7327949999999999,-845.7031
38.0,1.0,672.0,0.18413699999999994,0.9858330000000002,0.580779,1.744974,0.8579209999999999,-0.2180130000000001,-1.053605,-2.287534,-0.944901,-844.7266
38.0,1.0,673.0,0.25177599999999983,0.8329479999999998,0.42672899999999997,1.855616,0.597955,-0.23498399999999994,-1.1827699999999999,-2.304164,-1.060358,-843.75
38.0,1.0,674.0,0.10134900000000023,0.637749,0.24399899999999997,1.824866,0.3795519999999999,-0.23259000000000016,-1.195352,-2.275608,-1.1733760000000002,-842.7734
38.0,1.0,675.0,-0.10068199999999998,0.5822780000000001,0.254945,1.872794,0.33373499999999984,-0.08769799999999997,-1.1159169999999998,-2.186153,-1.092581,-841.7969
38.0,1.0,676.0,-0.04025900000000004,0.769393,0.43507300000000015,2.17362,0.5029589999999999,0.2545579999999998,-0.9207289999999999,-1.8883809999999999,-0.807834,-840.8203
38.0,1.0,677.0,0.206608,0.7590870000000001,0.450899,2.214785,0.6102409999999999,0.328359,-0.75535,-1.8361519999999998,-0.6491450000000001,-839.8438
38.0,1.0,678.0,0.254745,0.6129189999999999,0.3868869999999998,2.104764,0.63475,0.162417,-0.71068,-2.011601,-0.672632,-838.8672
38.0,1.0,679.0,0.014815999999999949,0.49644099999999997,0.3370869999999999,1.7847490000000001,0.563195,0.09110999999999994,-0.834165,-2.0365200000000003,-0.754722,-837.8906
38.0,1.0,680.0,-0.33542199999999994,0.18294200000000005,0.12192400000000003,1.349,0.39146299999999995,0.024579999999999984,-1.116228,-2.054722,-0.8889140000000001,-836.9141
38.0,1.0,681.0,-0.475341,0.059851999999999884,0.05749900000000007,1.2342460000000002,0.24702299999999983,-0.008560999999999873,-1.425522,-2.0776,-1.0254199999999998,-835.9375
38.0,1.0,682.0,-0.38525800000000004,0.19425400000000007,0.13187300000000002,1.3443339999999997,0.19919999999999985,0.025685000000000003,-1.3471859999999998,-2.040096,-1.0442449999999999,-834.9609
38.0,1.0,683.0,-0.38066600000000006,0.24185399999999993,0.16644999999999988,1.5235720000000001,0.22216899999999992,0.12000999999999998,-1.013819,-1.8815730000000002,-0.903573,-833.9844
38.0,1.0,684.0,-0.468044,0.1018590000000001,-0.0010760000000001747,1.4616629999999997,0.19876700000000022,0.05477400000000012,-1.0037840000000002,-1.8742770000000002,-0.7967000000000002,-833.0078
38.0,1.0,685.0,-0.792496,-0.11999699999999994,-0.15221900000000002,1.1181800000000002,0.011954999999999995,-0.1510989999999999,-1.309266,-2.0480509999999996,-0.8675740000000001,-832.0313
38.0,1.0,686.0,-1.1142889999999999,-0.42161199999999993,-0.35944000000000004,0.728363,-0.39041300000000007,-0.36124099999999987,-1.6716010000000003,-2.378003,-1.218216,-831.0547
38.0,1.0,687.0,-1.304227,-0.5647650000000001,-0.4506329999999999,0.5840029999999999,-0.42517900000000014,-0.559904,-1.799584,-2.475821,-1.361626,-830.0781
38.0,1.0,688.0,-1.356467,-0.507088,-0.36419399999999996,0.7894490000000001,-0.2497289999999999,-0.37329700000000016,-1.817946,-2.223582,-1.1702890000000001,-829.1016
38.0,1.0,689.0,-1.231383,-0.4721410000000001,-0.3212569999999998,1.053694,-0.2932609999999999,-0.20911500000000005,-1.899541,-2.093563,-1.1133209999999998,-828.125
38.0,1.0,690.0,-1.087458,-0.4822080000000002,-0.16277899999999992,1.126624,-0.277463,-0.14667399999999994,-1.957625,-2.065095,-1.143225,-827.1484
38.0,1.0,691.0,-1.1473229999999999,-0.40197299999999997,-0.056816999999999986,1.079564,-0.23534200000000002,-0.10044100000000004,-2.020582,-2.022777,-1.20586,-826.1719
38.0,1.0,692.0,-0.8350399999999999,-0.026897,0.312741,1.5209789999999999,0.12242900000000002,0.23253099999999996,-1.757796,-1.623239,-0.9405209999999999,-825.1953
38.0,1.0,693.0,-0.6500090000000001,0.22034800000000002,0.487758,1.855254,0.39808099999999996,0.38722799999999985,-1.507663,-1.4273430000000003,-0.8339300000000001,-824.2188
38.0,1.0,694.0,-0.7360709999999999,0.23849399999999996,0.517553,1.7672070000000002,0.461008,0.19432299999999997,-1.287543,-1.585899,-0.8537,-823.2422
38.0,1.0,695.0,-0.7689119999999999,0.12052900000000001,0.562082,1.609706,0.47252900000000003,0.12976000000000001,-1.06826,-1.6713920000000002,-0.8348819999999999,-822.2656
38.0,1.0,696.0,-0.604767,0.34034800000000004,0.8210450000000001,1.6628379999999998,0.5910569999999999,0.21065899999999993,-0.8388100000000002,-1.626508,-0.669101,-821.2891
38.0,1.0,697.0,-0.5920889999999999,0.42344000000000004,0.757035,1.6718739999999999,0.4297079999999999,0.011656000000000088,-1.0611400000000002,-1.787811,-0.8302289999999999,-820.3125
38.0,1.0,698.0,-0.678088,0.38870499999999986,0.5221370000000001,1.5302779999999998,0.2914699999999999,-0.2575269999999999,-1.368653,-2.0783370000000003,-1.03829,-819.3359
38.0,1.0,699.0,-0.80491,0.274295,0.44641499999999995,1.530858,0.3602080000000001,-0.23235300000000003,-1.422521,-2.138773,-1.0912359999999999,-818.3594
38.0,1.0,700.0,-0.9150020000000001,0.0832780000000001,0.21776799999999977,1.4629079999999999,0.22335200000000005,-0.2538960000000001,-1.6179149999999998,-2.149489,-1.3078319999999999,-817.3828
38.0,1.0,701.0,-0.9449279999999999,0.13746199999999995,0.08414500000000012,1.319824,0.07716499999999987,-0.32717599999999997,-1.8689580000000001,-2.1383919999999996,-1.496167,-816.4063
38.0,1.0,702.0,-1.102507,0.08727099999999993,-0.06353599999999998,1.081755,-0.13786800000000007,-0.6238419999999999,-2.141227,-2.399238,-1.6815200000000001,-815.4297
38.0,1.0,703.0,-1.0679809999999998,-0.07779600000000002,-0.2235560000000001,0.9992810000000002,-0.21571800000000002,-0.8257829999999999,-2.366833,-2.593389,-1.889884,-814.4531
38.0,1.0,704.0,-0.8392549999999999,-0.11306300000000004,-0.20290200000000008,0.9591289999999999,-0.2190099999999999,-1.006191,-2.396308,-2.7311759999999996,-2.033697,-813.4766
38.0,1.0,705.0,-0.6090559999999999,0.23501399999999983,0.09281300000000002,1.0126739999999999,0.025947999999999877,-0.8867520000000002,-2.1249079999999996,-2.597065,-1.839118,-812.5
38.0,1.0,706.0,-0.6326750000000001,0.33399999999999996,0.159829,1.0021370000000003,0.13811400000000001,-0.788104,-1.905041,-2.5819689999999995,-1.746918,-811.5234
38.0,1.0,707.0,-0.5264990000000002,0.5565370000000001,0.40825600000000006,1.189241,0.37731499999999996,-0.6238549999999999,-1.6367110000000002,-2.462345,-1.6346019999999999,-810.5469
38.0,1.0,708.0,-0.497333,0.698244,0.5828560000000002,1.317303,0.5930520000000001,-0.54693,-1.5402930000000001,-2.306445,-1.5295910000000001,-809.5703
38.0,1.0,709.0,-0.4752369999999999,0.7063369999999999,0.587214,1.5048750000000002,0.5678830000000001,-0.450287,-1.566945,-2.1650460000000002,-1.4610820000000002,-808.5938
38.0,1.0,710.0,-0.2773809999999999,0.6638290000000001,0.566366,1.7953700000000001,0.63239,-0.2182260000000002,-1.482684,-2.006691,-1.392264,-807.6172
38.0,1.0,711.0,-0.23053499999999993,0.5464620000000001,0.53222,1.7559770000000001,0.5346259999999999,-0.1754960000000001,-1.537337,-2.0833340000000002,-1.455264,-806.6406
38.0,1.0,712.0,-0.41394099999999995,0.445723,0.4044939999999999,1.5962370000000001,0.3371629999999999,-0.27796100000000007,-1.668184,-2.273987,-1.5556980000000002,-805.6641
38.0,1.0,713.0,-0.4289869999999999,0.516458,0.4690799999999998,1.7050589999999999,0.45414999999999994,-0.356485,-1.7033420000000001,-2.3157959999999997,-1.5133089999999998,-804.6875
38.0,1.0,714.0,-0.3981269999999999,0.5049490000000001,0.48216099999999984,1.8200919999999998,0.456888,-0.31904700000000014,-1.8551239999999998,-2.277008,-1.545213,-803.7109
38.0,1.0,715.0,-0.19615699999999994,0.6038830000000001,0.57318,1.867025,0.3469280000000001,-0.20978200000000002,-2.035522,-2.2828120000000003,-1.5056280000000002,-802.7344
38.0,1.0,716.0,0.008281999999999954,0.7202239999999999,0.7079469999999999,2.008184,0.33772099999999994,-0.156119,-2.017675,-2.277116,-1.476833,-801.7578
38.0,1.0,717.0,-0.14492299999999994,0.5077780000000002,0.590374,1.893011,0.06378899999999994,-0.19446699999999986,-2.1627359999999998,-2.3517669999999997,-1.7616939999999999,-800.7813
38.0,1.0,718.0,-0.247926,0.4355779999999999,0.5997779999999999,1.788806,0.14152099999999992,-0.15273500000000012,-2.0769640000000003,-2.289904,-1.766616,-799.8047
38.0,1.0,719.0,-0.405605,0.229867,0.3955279999999999,1.561289,0.21628299999999992,-0.339541,-2.1723310000000002,-2.514001,-1.8538979999999998,-798.8281
38.0,1.0,720.0,-0.5595280000000001,-0.01621599999999994,0.07055900000000002,1.463692,-0.003389000000000033,-0.4441420000000001,-2.4906740000000003,-2.6653020000000005,-2.170172,-797.8516
38.0,1.0,721.0,-0.435095,0.07657500000000002,0.07385200000000001,1.614165,0.015189999999999959,-0.3068799999999999,-2.54286,-2.55342,-2.236953,-796.875
38.0,1.0,722.0,-0.17369100000000004,0.24163900000000008,0.19966199999999998,1.7268780000000001,0.421101,-0.13987699999999992,-2.373534,-2.364499,-2.048954,-795.8984
38.0,1.0,723.0,-0.13341900000000007,0.38169900000000007,0.19242700000000001,1.7928400000000002,0.5100359999999999,-0.10389,-2.2653320000000003,-2.324678,-2.0287479999999998,-794.9219
38.0,1.0,724.0,-0.30379299999999987,0.21703200000000003,-0.131381,1.6057250000000003,0.09324999999999996,-0.341098,-2.632781,-2.549985,-2.362046,-793.9453
38.0,1.0,725.0,-0.6432800000000001,-0.024335000000000148,-0.490899,1.286378,-0.4427279999999999,-0.6007359999999999,-3.240719,-2.8393740000000003,-2.6827199999999998,-792.9688
38.0,1.0,726.0,-0.792482,-0.013424999999999975,-0.600241,1.202356,-0.6937939999999999,-0.663563,-3.505922,-2.876134,-2.80137,-791.9922
38.0,1.0,727.0,-0.7109610000000001,0.0603150000000001,-0.5088520000000001,1.295669,-0.6678050000000002,-0.5867490000000001,-3.3719149999999996,-2.8287720000000003,-2.895079,-791.0156
38.0,1.0,728.0,-0.532861,0.14917999999999998,-0.41908400000000007,1.490862,-0.444679,-0.434663,-3.1071690000000003,-2.733119,-2.8999,-790.0391
38.0,1.0,729.0,-0.430162,0.17815899999999996,-0.5235350000000001,1.579276,-0.307412,-0.5172490000000001,-3.0764679999999998,-2.84123,-3.0047839999999995,-789.0625
38.0,1.0,730.0,-0.377719,0.03942000000000014,-0.6674629999999999,1.3409739999999999,-0.484886,-0.745085,-3.295206,-3.139185,-3.19291,-788.0859
38.0,1.0,731.0,-0.28673599999999994,0.06800800000000004,-0.7307049999999999,1.0464790000000002,-0.479146,-0.9848839999999999,-3.329278,-3.343854,-3.2920619999999996,-787.1094
38.0,1.0,732.0,-0.25984399999999996,0.03677299999999992,-0.635659,1.023467,-0.32141099999999995,-0.9318659999999999,-3.297158,-3.294396,-3.245258,-786.1328
38.0,1.0,733.0,-0.339133,-0.075819,-0.6805420000000001,1.17368,-0.4841529999999999,-0.8944960000000001,-3.651585,-3.313383,-3.410901,-785.1563
38.0,1.0,734.0,-0.32653299999999996,0.12011000000000002,-0.7507649999999999,1.304995,-0.4694669999999998,-0.8997820000000002,-3.650317,-3.469785,-3.5100350000000002,-784.1797
38.0,1.0,735.0,-0.308974,0.20474199999999995,-0.7097689999999999,1.308133,-0.3216549999999998,-0.9283199999999999,-3.4268520000000002,-3.5419009999999997,-3.3823429999999997,-783.2031
38.0,1.0,736.0,0.05033100000000001,0.5366400000000001,-0.18995099999999987,1.6047799999999999,0.2661230000000001,-0.6233289999999999,-2.9247189999999996,-3.183453,-2.82644,-782.2266
38.0,1.0,737.0,0.36448800000000003,0.9218270000000001,0.12986199999999992,1.756329,0.670469,-0.495666,-2.6763300000000005,-2.99038,-2.498644,-781.25
38.0,1.0,738.0,0.2562600000000001,0.9507699999999999,0.07828699999999995,1.649753,0.72528,-0.6262449999999999,-2.6946999999999997,-3.0452969999999997,-2.451738,-780.2734
38.0,1.0,739.0,0.291408,1.0884340000000001,0.006662000000000008,1.59191,0.9163030000000001,-0.6352380000000001,-2.4489009999999998,-2.9251069999999997,-2.4473089999999997,-779.2969
38.0,1.0,740.0,0.31616800000000006,1.2761520000000002,0.12251199999999997,1.4744640000000002,1.110101,-0.550689,-2.197412,-2.828254,-2.3405329999999998,-778.3203
38.0,1.0,741.0,0.509541,1.4145619999999999,0.20585999999999996,1.557952,1.2840790000000002,-0.43842900000000007,-1.942468,-2.751408,-2.129914,-777.3438
38.0,1.0,742.0,0.7943990000000001,1.659478,0.510526,1.765301,1.448004,-0.22618200000000008,-1.7093280000000002,-2.57538,-1.933878,-776.3672
38.0,1.0,743.0,0.862428,1.7127709999999998,0.630833,1.798884,1.330231,-0.18526400000000007,-1.676308,-2.578735,-1.973061,-775.3906
38.0,1.0,744.0,0.914765,1.6977550000000001,0.538167,1.80083,1.13226,-0.23911099999999996,-1.8369419999999999,-2.695097,-2.084998,-774.4141
38.0,1.0,745.0,0.8783939999999998,1.6845910000000002,0.4801439999999999,1.794755,1.1021859999999999,-0.263788,-1.947773,-2.8989499999999997,-2.1613659999999997,-773.4375
38.0,1.0,746.0,0.9821149999999998,1.7014779999999998,0.43380700000000005,1.8833149999999999,1.177886,-0.23215099999999997,-1.927063,-3.0077960000000004,-2.20251,-772.4609
38.0,1.0,747.0,1.1675639999999998,1.973004,0.4238989999999999,2.1664700000000003,1.37265,-0.09287000000000008,-1.852679,-2.890737,-2.150133,-771.4844
38.0,1.0,748.0,1.41556,2.255236,0.535005,2.245141,1.51962,-0.02407399999999999,-1.766257,-2.774664,-2.098624,-770.5078
38.0,1.0,749.0,1.538925,2.394611,0.6526910000000001,2.209818,1.6658620000000002,-0.016510999999999873,-1.546865,-2.819835,-1.9508800000000002,-769.5313
38.0,1.0,750.0,1.3380349999999999,2.0631459999999997,0.4238730000000001,2.025501,1.4370389999999997,-0.17916599999999996,-1.6181019999999997,-2.9780809999999995,-1.98001,-768.5547
38.0,1.0,751.0,1.283361,1.983279,0.403395,2.025212,1.4573349999999996,-0.22331600000000015,-1.481471,-3.052174,-1.9478970000000002,-767.5781
38.0,1.0,752.0,1.1793459999999998,1.963577,0.38008900000000007,1.9511290000000003,1.580487,-0.32789,-1.29559,-3.153033,-1.9767510000000001,-766.6016
38.0,1.0,753.0,0.979384,1.807815,0.20825599999999994,1.9008209999999999,1.5570980000000003,-0.35785700000000015,-1.256564,-3.031515,-1.8923150000000002,-765.625
