subject,condition,sample,Fz,FCz,Cz,FC3,FC4,C3,C4,CP3,CP4,time_ms
42.0,1.0,1.0,0.13625567010309284,0.8854154639175259,0.6905927835051546,1.3900412371134019,0.9871,1.533417525773196,1.5916422680412374,1.595801030927835,1.130435051546392,-1500.0
42.0,1.0,2.0,0.043002061855670126,0.8901123711340206,0.6223701030927835,1.3326742268041236,0.8958639175257731,1.4375731958762887,1.4961340206185567,1.535860824742268,0.9678103092783505,-1499.0234
42.0,1.0,3.0,-0.1317536082474227,0.7469061855670105,0.4420701030927836,1.3640185567010308,0.5841371134020619,1.4080237113402063,1.1118525773195878,1.4918855670103093,0.5823278350515463,-1498.0469
42.0,1.0,4.0,-0.10703402061855655,0.7837010309278349,0.44269587628865986,1.5003030927835053,0.5583041237113402,1.5682216494845362,0.9723855670103092,1.5818680412371136,0.47501030927835053,-1497.0703
42.0,1.0,5.0,-0.1821329896907217,0.7521484536082474,0.437279381443299,1.5256587628865979,0.6934835051546393,1.6169680412371135,1.1694742268041236,1.628037113402062,0.7255463917525773,-1496.0938
42.0,1.0,6.0,-0.20513711340206178,0.7750907216494844,0.435780412371134,1.551337113402062,0.7651103092783504,1.5416082474226804,1.309063917525773,1.6270092783505157,0.8520402061855671,-1495.1172
42.0,1.0,7.0,-0.05193917525773196,0.821737113402062,0.5178896907216496,1.5875000000000001,0.7412896907216496,1.4022670103092785,1.2757123711340206,1.5269917525773196,0.8113701030927837,-1494.1406
42.0,1.0,8.0,-0.18208865979381442,0.6638329896907217,0.3587226804123713,1.397939175257732,0.642362886597938,1.2206041237113403,1.1369237113402062,1.3026505154639174,0.7274701030927835,-1493.1641
42.0,1.0,9.0,-0.3594649484536084,0.4214649484536083,0.12824329896907216,1.1072628865979381,0.48643298969072163,1.0781144329896908,0.9950639175257733,1.1028113402061857,0.5168680412371134,-1492.1875
42.0,1.0,10.0,-0.21798144329896912,0.3589226804123711,0.16127835051546402,1.2696350515463917,0.592603092783505,1.1813453608247424,1.0838319587628866,1.2213783505154638,0.5946432989690722,-1491.2109
42.0,1.0,11.0,-0.10398659793814446,0.3587257731958764,0.07689896907216491,1.3649597938144329,0.5485783505154639,1.1792567010309278,0.9662896907216494,1.196441237113402,0.45395257731958755,-1490.2344
42.0,1.0,12.0,-0.06529999999999996,0.3578556701030928,0.005385567010309395,1.4572783505154638,0.3762515463917525,1.1815979381443298,0.7715917525773197,1.1641237113402063,0.25280103092783507,-1489.2578
42.0,1.0,13.0,-0.05400927835051549,0.3135577319587628,-0.008136082474226812,1.5699515463917526,0.1909969072164949,1.1883515463917524,0.6210762886597938,1.2431835051546392,0.12790103092783509,-1488.2813
42.0,1.0,14.0,-0.23933092783505158,0.11387113402061867,-0.1808886597938144,1.4084515463917526,0.03985463917525777,1.0518226804123711,0.4141525773195876,1.1448103092783506,0.015414432989690786,-1487.3047
42.0,1.0,15.0,-0.09564639175257732,0.19157422680412356,-0.16830515463917517,1.4574824742268042,0.04211752577319581,1.1074556701030929,0.3247999999999998,1.0876134020618557,-0.019677319587628812,-1486.3281
42.0,1.0,16.0,0.1701731958762887,0.4859082474226806,0.0023783505154638903,1.6206979381443298,0.09992680412371135,1.214660824742268,0.44293917525773197,1.228940206185567,0.008151546391752588,-1485.3516
42.0,1.0,17.0,0.010476288659793805,0.38953917525773196,-0.13824020618556698,1.41849793814433,-0.006436082474226683,1.0684773195876287,0.5470309278350516,1.1743463917525774,-0.0964144329896908,-1484.375
42.0,1.0,18.0,-0.18462164948453605,0.2837711340206185,-0.22176288659793822,1.2966103092783505,-0.049406185567010395,0.9974731958762887,0.5425000000000001,1.0507505154639176,-0.10310618556701033,-1483.3984
42.0,1.0,19.0,-0.37336185567010305,0.10481958762886591,-0.3522494845360823,1.3577608247422683,-0.11954742268041234,1.0787340206185567,0.3799298969072167,1.0729061855670103,-0.11881855670103098,-1482.4219
42.0,1.0,20.0,-0.2914804123711341,0.11756391752577312,-0.4203432989690721,1.4248721649484537,-0.016924742268041144,1.0363144329896907,0.4568463917525773,1.0497577319587628,-0.08628144329896911,-1481.4453
42.0,1.0,21.0,-0.3370948453608248,0.10113711340206191,-0.4789,1.2605,-0.028810309278350533,0.8675484536082475,0.4560618556701031,0.8778298969072166,-0.1821845360824743,-1480.4688
42.0,1.0,22.0,-0.20091958762886594,0.27114536082474233,-0.352581443298969,1.340577319587629,0.03923814432989687,1.00529587628866,0.4431144329896908,0.8800907216494844,-0.21073917525773198,-1479.4922
42.0,1.0,23.0,-0.02773505154639176,0.3968618556701031,-0.370939175257732,1.4189247422680413,0.050173195876288566,1.0477319587628866,0.36525257731958766,0.9497556701030928,-0.30628247422680405,-1478.5156
42.0,1.0,24.0,0.06259793814433005,0.39054020618556695,-0.4104731958762885,1.4855546391752577,-0.005489690721649564,1.1197247422680414,0.24549072164948454,1.0325103092783505,-0.41766701030927833,-1477.5391
42.0,1.0,25.0,0.3888649484536082,0.6421164948453609,-0.11347216494845348,1.770696907216495,0.19888041237113402,1.41789793814433,0.39716288659793814,1.3018536082474226,-0.17238247422680417,-1476.5625
42.0,1.0,26.0,0.7657907216494847,0.9090268041237114,0.22958762886597942,2.009041237113402,0.6079494845360824,1.6264309278350515,0.7478680412371134,1.5591,0.17127628865979375,-1475.5859
42.0,1.0,27.0,0.9813453608247422,1.0159680412371135,0.29195360824742267,1.9960164948453607,0.8475845360824742,1.6318938144329898,0.9254731958762886,1.5396309278350515,0.19276804123711344,-1474.6094
42.0,1.0,28.0,0.9030505154639176,0.860080412371134,0.07295051546391747,1.8652103092783505,0.7852752577319588,1.518338144329897,0.8999113402061856,1.3457278350515463,0.026181443298969074,-1473.6328
42.0,1.0,29.0,0.9764556701030928,0.8891979381443299,0.138380412371134,1.9642113402061854,0.7938443298969072,1.5498474226804122,0.9789670103092784,1.3525257731958764,0.16821958762886605,-1472.6563
42.0,1.0,30.0,1.1442608247422679,1.0515391752577319,0.2549329896907216,2.087426804123711,0.9958845360824742,1.7184515463917525,1.138021649484536,1.5033134020618557,0.351579381443299,-1471.6797
42.0,1.0,31.0,1.0518463917525773,1.1117824742268039,0.21059484536082465,1.9953443298969071,1.2055340206185567,1.7573958762886601,1.3117092783505155,1.548594845360825,0.5000907216494844,-1470.7031
42.0,1.0,32.0,0.9408896907216496,1.1639237113402061,0.21714948453608252,1.994,1.2335226804123711,1.7310742268041237,1.4766494845360827,1.5742649484536082,0.7680371134020618,-1469.7266
42.0,1.0,33.0,0.8806051546391753,1.1575773195876289,0.2956742268041237,2.1187268041237113,1.197259793814433,1.8081123711340206,1.530018556701031,1.6834298969072166,0.9137010309278351,-1468.75
42.0,1.0,34.0,0.8151422680412372,1.2056350515463918,0.45627938144329894,2.0875319587628867,1.0390412371134021,1.9092731958762887,1.4280381443298968,1.8700628865979383,0.8412567010309279,-1467.7734
42.0,1.0,35.0,0.7405144329896908,1.2289587628865979,0.46371649484536087,1.9078814432989692,0.8854494845360826,1.7884278350515463,1.2710030927835052,1.7694494845360826,0.7403948453608247,-1466.7969
42.0,1.0,36.0,0.5995618556701031,1.1019134020618555,0.367519587628866,1.7210443298969074,0.8135175257731958,1.5221123711340208,1.1876886597938145,1.5784391752577318,0.6988773195876289,-1465.8203
42.0,1.0,37.0,0.5242340206185566,0.9724876288659794,0.28037938144329894,1.6138824742268043,0.687762886597938,1.4269350515463917,1.0785628865979382,1.4473484536082473,0.5969432989690721,-1464.8438
42.0,1.0,38.0,0.558943298969072,0.8989494845360825,0.2632969072164948,1.5885948453608245,0.6497350515463919,1.4264061855670103,1.0834505154639174,1.3521134020618557,0.49999072164948455,-1463.8672
42.0,1.0,39.0,0.7439216494845359,0.897639175257732,0.3344,1.868480412371134,0.738063917525773,1.6406804123711338,1.058337113402062,1.4817134020618556,0.4829546391752578,-1462.8906
42.0,1.0,40.0,0.8501917525773195,1.0143721649484536,0.4949824742268041,2.2594680412371133,0.8770804123711341,2.009394845360825,1.1156711340206187,1.776079381443299,0.5964979381443298,-1461.9141
42.0,1.0,41.0,0.834239175257732,1.142159793814433,0.5960546391752577,2.2585907216494845,0.868621649484536,1.9496701030927834,1.1544092783505155,1.842640206185567,0.6150979381443299,-1460.9375
42.0,1.0,42.0,0.7054525773195874,1.0116680412371133,0.5438814432989691,2.0822659793814435,0.7784371134020618,1.768986597938144,1.0510247422680412,1.7945742268041238,0.6108618556701031,-1459.9609
42.0,1.0,43.0,0.7664525773195876,0.9751113402061855,0.5245,1.9923082474226805,0.7830721649484536,1.7283494845360827,1.046841237113402,1.809040206185567,0.617080412371134,-1458.9844
42.0,1.0,44.0,0.8568061855670104,1.0193484536082473,0.5408639175257732,1.9192762886597938,0.8590762886597938,1.634678350515464,1.0746742268041236,1.7588226804123712,0.6242329896907215,-1458.0078
42.0,1.0,45.0,0.8780835051546393,1.2191340206185568,0.7722938144329896,1.899683505154639,1.061637113402062,1.6630453608247424,1.3702680412371133,1.8635567010309277,0.9713969072164949,-1457.0313
42.0,1.0,46.0,0.9808670103092783,1.5395247422680411,1.087779381443299,2.2394515463917526,1.1138525773195875,2.0043257731958763,1.4910051546391752,2.1443752577319586,1.1580463917525774,-1456.0547
42.0,1.0,47.0,1.0419360824742268,1.6042113402061855,1.1599154639175258,2.4700453608247424,1.0247360824742269,2.1848474226804124,1.5050000000000001,2.3210886597938143,1.2087855670103094,-1455.0781
42.0,1.0,48.0,1.037119587628866,1.6322103092783504,1.2537123711340206,2.4812731958762884,1.2060082474226803,2.2472360824742266,1.7773278350515462,2.47209793814433,1.5039783505154638,-1454.1016
42.0,1.0,49.0,0.9601360824742267,1.6393649484536084,1.2988938144329898,2.4765474226804125,1.34689793814433,2.385162886597938,1.9890082474226802,2.6084030927835054,1.7131474226804122,-1453.125
42.0,1.0,50.0,1.1198742268041237,1.7018268041237115,1.447937113402062,2.69759381443299,1.2963494845360826,2.6502484536082473,2.077749484536082,2.81889587628866,1.7179463917525775,-1452.1484
42.0,1.0,51.0,1.308220618556701,1.8052463917525774,1.5975268041237114,2.8013639175257734,1.2551268041237114,2.6831855670103093,2.066985567010309,2.8634,1.6740010309278353,-1451.1719
42.0,1.0,52.0,1.3184958762886598,1.8028762886597938,1.619679381443299,2.7759505154639177,1.2669350515463917,2.543277319587629,2.052781443298969,2.741641237113402,1.6952855670103093,-1450.1953
42.0,1.0,53.0,1.3994185567010309,1.7513041237113405,1.5354288659793813,2.7388494845360825,1.2133505154639175,2.4618288659793817,1.8729701030927834,2.5396670103092784,1.4874350515463917,-1449.2188
42.0,1.0,54.0,1.4033494845360825,1.6991938144329897,1.4312762886597938,2.5962,1.1447525773195877,2.34040206185567,1.695960824742268,2.3855556701030927,1.2465773195876289,-1448.2422
42.0,1.0,55.0,1.386063917525773,1.7830556701030928,1.3814649484536083,2.7101886597938147,1.0615773195876288,2.4927886597938143,1.5125443298969072,2.524250515463917,1.039341237113402,-1447.2656
42.0,1.0,56.0,1.3486773195876292,1.7123855670103094,1.3640041237113403,2.7386154639175255,1.013017525773196,2.583240206185567,1.422460824742268,2.601517525773196,1.0332113402061855,-1446.2891
42.0,1.0,57.0,1.2237876288659792,1.6058484536082476,1.3433278350515463,2.5620690721649484,0.9286247422680413,2.5240917525773194,1.341240206185567,2.5959711340206186,1.082719587628866,-1445.3125
42.0,1.0,58.0,1.2663494845360823,1.698034020618557,1.3602731958762886,2.514164948453608,0.8565546391752578,2.4149123711340206,1.2538072164948455,2.534611340206186,1.0249958762886597,-1444.3359
42.0,1.0,59.0,1.3510164948453607,1.8408237113402062,1.4036948453608247,2.6254082474226803,0.7935711340206186,2.390942268041237,1.1137546391752575,2.5527762886597936,0.9486453608247424,-1443.3594
42.0,1.0,60.0,1.4779907216494848,1.9396989690721649,1.5434505154639175,2.701457731958763,0.9282113402061856,2.4416505154639174,1.2622474226804123,2.6203835051546394,1.1170010309278349,-1442.3828
42.0,1.0,61.0,1.548301030927835,1.9812762886597937,1.6019319587628864,2.6237092783505154,1.0444134020618556,2.498936082474227,1.4767525773195878,2.6116474226804125,1.1742381443298968,-1441.4063
42.0,1.0,62.0,1.6987979381443299,2.0885886597938144,1.6738628865979381,2.647543298969072,1.3041432989690722,2.5772515463917527,1.7728608247422681,2.58879381443299,1.3816587628865982,-1440.4297
42.0,1.0,63.0,1.6554711340206187,2.1483350515463915,1.8077587628865979,2.534981443298969,1.3936020618556704,2.5959752577319586,1.938882474226804,2.741743298969072,1.6196989690721648,-1439.4531
42.0,1.0,64.0,1.6836,2.2593474226804124,1.8877907216494845,2.5491453608247423,1.3459618556701032,2.5478731958762886,1.8601278350515464,2.8456783505154637,1.5192371134020617,-1438.4766
42.0,1.0,65.0,1.885580412371134,2.242180412371134,1.7499041237113402,2.659674226804124,1.237479381443299,2.452742268041237,1.6196536082474227,2.7372,1.2721134020618556,-1437.5
42.0,1.0,66.0,2.097759793814433,2.304980412371134,1.742717525773196,2.852815463917526,1.2059577319587629,2.4886134020618558,1.4447515463917524,2.713321649484536,1.061677319587629,-1436.5234
42.0,1.0,67.0,2.1432268041237115,2.3498288659793816,1.7289144329896908,2.912483505154639,1.2035865979381444,2.5507670103092788,1.4448721649484537,2.7094164948453607,1.0200072164948453,-1435.5469
42.0,1.0,68.0,2.1350268041237115,2.4369659793814433,1.753777319587629,2.9959103092783503,1.2647000000000002,2.687714432989691,1.542817525773196,2.774282474226804,1.0229567010309277,-1434.5703
42.0,1.0,69.0,2.041937113402062,2.280318556701031,1.5319,2.995467010309278,1.095561855670103,2.7607298969072165,1.3063402061855671,2.738403092783505,0.8427845360824744,-1433.5938
42.0,1.0,70.0,2.1590134020618557,2.210679381443299,1.442262886597938,3.030486597938144,1.2615762886597939,2.680490721649485,1.3474051546391754,2.6765886597938144,0.8559278350515465,-1432.6172
42.0,1.0,71.0,2.284973195876289,2.401753608247423,1.5127773195876288,3.1821855670103094,1.4933494845360824,2.752160824742268,1.5429886597938143,2.6571103092783503,1.0043896907216494,-1431.6406
42.0,1.0,72.0,2.3795896907216494,2.5265865979381443,1.5810762886597938,3.342088659793814,1.4476876288659795,2.8503309278350515,1.6251443298969073,2.7783484536082472,1.0907907216494845,-1430.6641
42.0,1.0,73.0,2.3453515463917527,2.4721958762886596,1.5754618556701032,3.324357731958763,1.3545525773195877,2.8278000000000003,1.6141958762886597,2.8036020618556705,1.044238144329897,-1429.6875
42.0,1.0,74.0,2.522844329896907,2.5977494845360822,1.6476680412371134,3.4731536082474226,1.4567927835051546,2.8714061855670105,1.599664948453608,2.8456298969072162,0.9534422680412372,-1428.7109
42.0,1.0,75.0,2.705158762886598,2.7707195876288657,1.7356597938144331,3.642978350515464,1.5661216494845362,2.9509804123711336,1.6247804123711338,2.8741484536082473,0.9977350515463917,-1427.7344
42.0,1.0,76.0,2.838224742268041,2.899896907216495,1.8734917525773196,3.734381443298969,1.568661855670103,3.070423711340206,1.6903072164948454,2.9151381443298967,1.0657948453608246,-1426.7578
42.0,1.0,77.0,2.8851350515463916,2.9425391752577323,1.8799546391752577,3.711525773195876,1.572501030927835,3.0371144329896906,1.6429835051546393,2.936979381443299,1.0498072164948453,-1425.7813
42.0,1.0,78.0,2.9273329896907216,2.999738144329897,1.9308701030927837,3.6080484536082476,1.826741237113402,2.9300134020618556,1.8401649484536085,2.8798113402061856,1.2267288659793814,-1424.8047
42.0,1.0,79.0,3.0312793814432992,3.12330206185567,2.1564536082474226,3.6314134020618556,1.9269340206185568,3.0024329896907216,1.9431226804123711,2.8916742268041236,1.4160268041237114,-1423.8281
42.0,1.0,80.0,3.2032773195876287,3.3293587628865984,2.3886773195876287,3.9091762886597943,2.0000556701030927,3.3595237113402066,2.036663917525773,3.133241237113402,1.4702371134020618,-1422.8516
42.0,1.0,81.0,3.157038144329897,3.3516484536082474,2.3440113402061855,3.9701670103092783,1.97829793814433,3.5023556701030927,1.9198865979381445,3.26009793814433,1.3913134020618558,-1421.875
42.0,1.0,82.0,2.977624742268041,3.267521649484536,2.2522340206185567,3.7565536082474225,1.9358144329896907,3.364559793814433,1.8516237113402063,3.139882474226804,1.4764577319587628,-1420.8984
42.0,1.0,83.0,2.9659484536082474,3.241103092783505,2.258994845360825,3.787637113402062,2.0156876288659795,3.301679381443299,1.975619587628866,3.1512762886597936,1.5778721649484537,-1419.9219
42.0,1.0,84.0,3.1750814432989696,3.4577948453608247,2.5632257731958763,4.07679381443299,2.1559226804123712,3.50469175257732,2.2303443298969072,3.4428268041237113,1.7908061855670103,-1418.9453
42.0,1.0,85.0,3.2306907216494847,3.5210123711340207,2.5897134020618555,4.085282474226804,2.0810515463917527,3.604842268041237,2.3576917525773196,3.4619092783505154,1.8336690721649485,-1417.9688
42.0,1.0,86.0,3.152032989690722,3.455163917525773,2.4787639175257734,4.032976288659794,1.851179381443299,3.543215463917526,2.2329134020618557,3.3224268041237113,1.5893000000000002,-1416.9922
42.0,1.0,87.0,3.3045463917525773,3.6150927835051547,2.6912958762886596,4.207294845360825,1.8509649484536081,3.7618463917525773,2.2655309278350515,3.5563195876288662,1.6424,-1416.0156
42.0,1.0,88.0,3.3962721649484537,3.7822216494845358,2.8341927835051544,4.374346391752577,1.8871453608247424,3.941420618556701,2.3885824742268045,3.7862639175257735,1.7357329896907214,-1415.0391
42.0,1.0,89.0,3.596625773195876,3.9827072164948456,2.99669381443299,4.624403092783505,2.0564329896907214,4.122490721649484,2.6041793814432985,3.98790412371134,1.9124907216494846,-1414.0625
42.0,1.0,90.0,3.6394082474226805,3.9753515463917526,3.073343298969072,4.5721556701030925,2.210273195876289,4.116601030927835,2.860523711340206,3.968187628865979,2.131777319587629,-1413.0859
42.0,1.0,91.0,3.487779381443299,3.855182474226804,2.9134927835051543,4.387711340206185,2.201080412371134,3.923591752577319,2.768061855670103,3.779634020618557,2.002259793814433,-1412.1094
42.0,1.0,92.0,3.2267804123711343,3.6425082474226804,2.749759793814433,4.318578350515464,2.147003092783505,3.789219587628866,2.7253309278350515,3.6818515463917523,1.9928969072164948,-1411.1328
42.0,1.0,93.0,2.7786319587628863,3.2797010309278347,2.489101030927835,4.104594845360825,1.922063917525773,3.528619587628866,2.5764309278350517,3.429926804123711,1.9924886597938145,-1410.1563
42.0,1.0,94.0,2.543922680412371,3.083479381443299,2.3478103092783504,3.882443298969072,1.781218556701031,3.2798907216494846,2.470543298969072,3.209337113402062,1.9270432989690722,-1409.1797
42.0,1.0,95.0,2.5938670103092787,3.032311340206186,2.3072948453608246,3.623235051546392,1.6866474226804125,3.068855670103093,2.3298195876288657,3.078176288659794,1.6654257731958764,-1408.2031
42.0,1.0,96.0,2.868482474226804,3.2291814432989687,2.450574226804124,3.6368948453608247,1.7631453608247423,3.111117525773196,2.3677907216494845,3.1634927835051543,1.747220618556701,-1407.2266
42.0,1.0,97.0,2.9213927835051545,3.368880412371134,2.6647257731958764,3.7667505154639174,1.7372051546391754,3.224061855670103,2.344042268041237,3.281318556701031,1.9102969072164948,-1406.25
42.0,1.0,98.0,2.765142268041237,3.352816494845361,2.669618556701031,3.76560206185567,1.6725103092783504,3.2683061855670106,2.290146391752577,3.3321855670103098,2.0437835051546394,-1405.2734
42.0,1.0,99.0,2.8735659793814436,3.5138731958762883,2.766022680412371,3.79800618556701,1.7637278350515464,3.3793154639175262,2.3563948453608248,3.4812969072164948,2.0818680412371133,-1404.2969
42.0,1.0,100.0,2.9466896907216493,3.5713999999999997,2.8882298969072164,3.8106742268041236,1.9543701030927836,3.491825773195876,2.4336835051546393,3.550960824742268,2.0652701030927836,-1403.3203
42.0,1.0,101.0,2.6929329896907217,3.309640206185567,2.6577144329896907,3.61709381443299,1.8080443298969073,3.265622680412371,2.241275257731959,3.373803092783505,1.8330082474226803,-1402.3438
42.0,1.0,102.0,2.2585020618556704,2.9348329896907215,2.3039257731958767,3.311460824742268,1.5046051546391752,2.924437113402062,2.101452577319588,3.074017525773196,1.661873195876289,-1401.3672
42.0,1.0,103.0,1.9748886597938144,2.6934226804123713,2.078856701030928,3.044937113402062,1.3405381443298972,2.749954639175258,2.0011896907216493,2.9094237113402057,1.5000515463917525,-1400.3906
42.0,1.0,104.0,1.8877690721649483,2.7193659793814433,1.9386051546391754,2.84620618556701,1.2934814432989692,2.595901030927835,1.8803896907216493,2.772370103092783,1.3721134020618557,-1399.4141
42.0,1.0,105.0,1.8593226804123715,2.792047422680412,1.9936958762886596,2.8401288659793815,1.2446742268041238,2.6240546391752577,1.8747855670103093,2.768343298969072,1.4893061855670102,-1398.4375
42.0,1.0,106.0,1.9925927835051547,2.8911082474226806,2.1483917525773197,3.0068268041237114,1.3671731958762887,2.7318216494845364,1.9596680412371135,2.855705154639175,1.5843556701030928,-1397.4609
42.0,1.0,107.0,2.2269463917525774,3.1204886597938146,2.3227783505154638,3.1685505154639175,1.6157329896907218,2.704539175257732,2.120822680412371,2.8713463917525774,1.718345360824742,-1396.4844
42.0,1.0,108.0,2.3617309278350516,3.2027876288659796,2.430575257731959,3.3031319587628865,1.738517525773196,2.692336082474227,2.2988546391752576,2.784187628865979,1.7839463917525775,-1395.5078
42.0,1.0,109.0,2.4055474226804123,3.127817525773196,2.4668742268041237,3.194014432989691,1.7991216494845361,2.6167896907216495,2.3721742268041237,2.6773072164948455,1.7787082474226803,-1394.5313
42.0,1.0,110.0,2.3352164948453606,2.98109793814433,2.345937113402062,3.0991360824742267,1.6222742268041237,2.613626804123711,2.215025773195876,2.651348453608247,1.7313762886597939,-1393.5547
42.0,1.0,111.0,2.0727958762886596,2.7310041237113403,2.0172134020618557,2.976378350515464,1.3203329896907214,2.5087587628865977,1.823058762886598,2.5179886597938146,1.4352845360824742,-1392.5781
42.0,1.0,112.0,1.8267731958762887,2.49419587628866,1.6784639175257732,2.6842731958762887,1.1512103092783506,2.221679381443299,1.7320690721649485,2.2774608247422683,1.2310051546391751,-1391.6016
42.0,1.0,113.0,1.8347896907216492,2.451716494845361,1.5635474226804122,2.4584721649484536,1.187980412371134,1.9263556701030928,1.8206278350515464,2.1149484536082475,1.2277505154639177,-1390.625
42.0,1.0,114.0,1.8626896907216495,2.3462030927835054,1.4446288659793816,2.4174865979381446,1.121201030927835,1.8003907216494845,1.7699340206185565,2.0159917525773197,1.1686463917525771,-1389.6484
42.0,1.0,115.0,1.908217525773196,2.211681443298969,1.3546659793814433,2.3544082474226804,1.0140917525773196,1.8141824742268042,1.6768773195876288,1.9732855670103093,1.1273731958762887,-1388.6719
42.0,1.0,116.0,2.0798567010309275,2.2520092783505157,1.3675731958762884,2.336744329896907,1.1287721649484537,1.8822680412371133,1.7520010309278349,1.983803092783505,1.1620113402061856,-1387.6953
42.0,1.0,117.0,2.1752927835051548,2.395434020618557,1.4374412371134018,2.562920618556701,1.2204443298969072,2.103650515463918,1.7152422680412371,2.167211340206186,1.0925979381443298,-1386.7188
42.0,1.0,118.0,2.03280412371134,2.3458701030927833,1.393922680412371,2.6390577319587627,1.1877701030927836,2.177803092783505,1.6181855670103096,2.1884061855670107,1.0832659793814432,-1385.7422
42.0,1.0,119.0,1.8796680412371134,2.169644329896907,1.1301051546391754,2.455847422680413,0.9606556701030927,2.007676288659794,1.3877402061855668,1.9993886597938144,0.8314979381443298,-1384.7656
42.0,1.0,120.0,1.8896288659793816,2.190703092783505,1.046541237113402,2.4518494845360825,0.8839752577319587,2.047456701030928,1.29720412371134,2.0934484536082474,0.7970134020618557,-1383.7891
42.0,1.0,121.0,1.9059546391752578,2.2795144329896906,1.0832969072164949,2.615326804123711,0.8553752577319588,2.1728164948453608,1.381881443298969,2.199261855670103,0.9855391752577322,-1382.8125
42.0,1.0,122.0,1.93990618556701,2.432555670103093,1.2272742268041237,2.853679381443299,0.9605010309278352,2.2906134020618554,1.532659793814433,2.24450206185567,1.1097865979381445,-1381.8359
42.0,1.0,123.0,1.6606639175257734,2.04679793814433,0.9202969072164948,2.631054639175258,0.740281443298969,1.996681443298969,1.289821649484536,1.9734824742268042,0.8593206185567012,-1380.8594
42.0,1.0,124.0,1.4580731958762887,1.7002628865979381,0.5619690721649484,2.412313402061856,0.44866391752577317,1.6953927835051543,0.9960938144329897,1.7849432989690721,0.5331360824742267,-1379.8828
42.0,1.0,125.0,1.4405350515463917,1.5738402061855672,0.4850742268041237,2.3946288659793815,0.4927144329896908,1.5970432989690722,0.9224443298969072,1.6733103092783503,0.39480515463917537,-1378.9063
42.0,1.0,126.0,1.409839175257732,1.5422340206185567,0.40644123711340213,2.359205154639175,0.5806752577319587,1.4738309278350517,0.8557226804123711,1.480119587628866,0.17072061855670106,-1377.9297
42.0,1.0,127.0,1.1712082474226804,1.3109371134020618,0.14563298969072166,2.2282463917525774,0.3899494845360825,1.3740876288659793,0.6620670103092784,1.3881731958762888,-0.10272268041237109,-1376.9531
42.0,1.0,128.0,1.0683845360824744,1.232376288659794,0.11926701030927842,2.263969072164948,0.4255628865979382,1.4485381443298968,0.8131422680412372,1.5421731958762888,0.07233711340206189,-1375.9766
42.0,1.0,129.0,1.1080917525773197,1.3269237113402061,0.28418247422680404,2.3858453608247423,0.5017567010309278,1.6472927835051545,0.9927216494845362,1.7444268041237114,0.3514690721649484,-1375.0
42.0,1.0,130.0,1.0159278350515464,1.3150061855670105,0.3671979381443298,2.3376979381443297,0.5088494845360825,1.7332938144329897,1.0982752577319588,1.8069360824742269,0.5079319587628867,-1374.0234
42.0,1.0,131.0,0.8573783505154637,1.1487855670103093,0.2748216494845361,2.2469731958762886,0.4360773195876289,1.6788340206185568,1.0287680412371134,1.775138144329897,0.4199463917525775,-1373.0469
42.0,1.0,132.0,0.7384804123711342,0.9595402061855669,0.12117010309278357,2.0946474226804126,0.2413515463917526,1.5725092783505155,0.7805463917525772,1.7117257731958766,0.2895113402061856,-1372.0703
42.0,1.0,133.0,0.5049474226804123,0.664778350515464,-0.0826680412371135,1.9415721649484536,0.09722680412371129,1.431917525773196,0.6516742268041238,1.5869762886597938,0.222198969072165,-1371.0938
42.0,1.0,134.0,0.38724742268041257,0.4959195876288659,-0.20746082474226796,1.8063608247422678,-0.03263814432989697,1.3136381443298968,0.5805103092783505,1.469522680412371,0.2042505154639176,-1370.1172
42.0,1.0,135.0,0.41671443298969074,0.5209845360824742,-0.27276597938144315,1.6561288659793814,0.021454639175257726,1.2100731958762887,0.4986134020618557,1.392622680412371,0.20307525773195864,-1369.1406
42.0,1.0,136.0,0.3456072164948453,0.5677072164948452,-0.29840309278350524,1.5934494845360827,0.09462061855670097,1.1252649484536081,0.45829381443298967,1.3383721649484537,0.13489175257731958,-1368.1641
42.0,1.0,137.0,0.2751051546391753,0.6176845360824741,-0.27504329896907204,1.7273659793814435,0.03576082474226808,1.1841360824742269,0.365540206185567,1.356582474226804,0.17474020618556696,-1367.1875
42.0,1.0,138.0,0.308742268041237,0.736518556701031,-0.018357731958762807,1.9334298969072168,0.13068969072164957,1.3400185567010308,0.4643896907216495,1.4945670103092783,0.30370618556701046,-1366.2109
42.0,1.0,139.0,0.36604432989690716,0.7929577319587631,0.09590515463917519,1.9269670103092782,0.20493092783505162,1.434078350515464,0.5439154639175258,1.5970865979381441,0.32383608247422674,-1365.2344
42.0,1.0,140.0,0.46702989690721636,0.9208525773195877,0.1464690721649483,1.9590371134020619,0.2046865979381444,1.57749793814433,0.5794412371134021,1.7529752577319588,0.36464123711340213,-1364.2578
42.0,1.0,141.0,0.2907041237113402,0.7870958762886597,0.050345360824742065,1.8229876288659794,0.07442783505154638,1.5374742268041237,0.5512876288659794,1.7741865979381444,0.2699319587628866,-1363.2813
42.0,1.0,142.0,0.29000103092783514,0.6675432989690722,0.06653402061855673,1.8554092783505154,-0.033944329896907204,1.5666319587628863,0.5223082474226803,1.8140556701030928,0.19967731958762883,-1362.3047
42.0,1.0,143.0,0.5096814432989691,0.8506030927835053,0.19702164948453604,1.9923134020618558,0.06226288659793811,1.6663010309278352,0.598342268041237,1.9201144329896909,0.35431134020618543,-1361.3281
42.0,1.0,144.0,0.42823298969072165,0.8540989690721651,0.19098865979381435,1.996137113402062,0.015744329896907223,1.6345381443298967,0.44139896907216497,1.8988824742268045,0.37076804123711354,-1360.3516
42.0,1.0,145.0,0.48909690721649485,0.977139175257732,0.3329113402061854,2.1681999999999997,-0.0049381443298969355,1.7778329896907217,0.36517010309278347,1.9439958762886598,0.3578938144329897,-1359.375
42.0,1.0,146.0,0.4432020618556701,0.9044319587628866,0.16058865979381437,2.082816494845361,-0.13696082474226814,1.6768567010309277,0.23848969072164955,1.8065536082474227,0.2306639175257732,-1358.3984
42.0,1.0,147.0,0.5319484536082475,0.9128237113402062,0.06617938144329903,2.0749113402061856,-0.24195876288659796,1.56669793814433,0.0696309278350515,1.739761855670103,0.04675257731958763,-1357.4219
42.0,1.0,148.0,0.7628432989690722,1.080944329896907,0.22756701030927834,2.1681360824742266,-0.0611835051546392,1.6707938144329897,0.22788453608247417,1.895081443298969,0.18393814432989697,-1356.4453
42.0,1.0,149.0,0.9018082474226804,1.1866216494845363,0.3909453608247423,2.22850412371134,0.27020103092783504,1.9042752577319586,0.6344484536082475,2.094917525773196,0.5577783505154639,-1355.4688
42.0,1.0,150.0,0.9017824742268042,1.3139474226804124,0.5560742268041238,2.3520443298969074,0.43482061855670084,2.126423711340206,0.8260670103092784,2.329162886597938,0.7954216494845361,-1354.4922
42.0,1.0,151.0,1.0139123711340206,1.6193845360824741,0.7905876288659796,2.3919061855670103,0.6398577319587628,2.1507505154639177,0.9768474226804124,2.4152237113402064,0.9694154639175259,-1353.5156
42.0,1.0,152.0,0.8734556701030928,1.6069278350515466,0.914583505154639,2.2245567010309277,0.6665556701030928,2.011837113402062,1.0555907216494846,2.2768701030927834,1.019658762886598,-1352.5391
42.0,1.0,153.0,0.7108072164948456,1.5134855670103093,0.8721000000000001,1.9589855670103096,0.7271412371134022,1.8194886597938145,1.1594474226804123,2.12920618556701,0.9990030927835052,-1351.5625
42.0,1.0,154.0,0.873358762886598,1.5643567010309278,0.8139474226804123,2.0352154639175257,0.7464762886597938,1.8333288659793814,1.0586051546391753,2.0625103092783506,0.7452360824742268,-1350.5859
42.0,1.0,155.0,1.1103927835051546,1.654498969072165,0.8678876288659795,2.2989711340206185,0.7766206185567011,1.9546773195876288,1.092343298969072,2.146359793814433,0.7468309278350517,-1349.6094
42.0,1.0,156.0,1.039579381443299,1.7002494845360823,0.9396608247422681,2.3828783505154636,0.6398515463917528,1.9931865979381445,0.9370948453608248,2.198717525773196,0.6759402061855669,-1348.6328
42.0,1.0,157.0,0.8775865979381443,1.5506938144329896,0.8344618556701031,2.2991257731958763,0.3495092783505155,1.9584030927835052,0.6578721649484536,2.145224742268041,0.46184226804123707,-1347.6563
42.0,1.0,158.0,0.9706608247422682,1.5215938144329895,0.7327917525773194,2.19780618556701,0.1464505154639176,1.9271814432989691,0.4522484536082475,2.1022752577319586,0.26862783505154625,-1346.6797
42.0,1.0,159.0,1.1059226804123712,1.6617443298969072,0.8071546391752576,2.225459793814433,0.25960927835051556,1.9794577319587627,0.5565432989690723,2.1796443298969073,0.2408288659793815,-1345.7031
42.0,1.0,160.0,1.1401742268041237,1.6714938144329896,0.7843525773195876,2.1566649484536082,0.5023443298969071,1.8020886597938146,0.8867402061855669,2.107301030927835,0.393041237113402,-1344.7266
42.0,1.0,161.0,1.1329597938144331,1.6397711340206187,0.7508927835051545,2.0942762886597937,0.5635020618556701,1.6510154639175256,0.8815288659793814,2.0499701030927837,0.422580412371134,-1343.75
42.0,1.0,162.0,1.1878958762886598,1.59810618556701,0.7984731958762887,2.1748268041237115,0.5914092783505156,1.7485690721649485,0.8223804123711341,2.1533391752577318,0.4840144329896907,-1342.7734
42.0,1.0,163.0,1.0956958762886597,1.4775123711340208,0.7925814432989692,2.1891948453608245,0.6365061855670103,1.7399752577319585,0.9202278350515465,2.151342268041237,0.611398969072165,-1341.7969
42.0,1.0,164.0,1.0742494845360826,1.482176288659794,0.7482237113402062,2.222738144329897,0.5898288659793814,1.727840206185567,0.9052752577319588,2.069163917525773,0.5380907216494843,-1340.8203
42.0,1.0,165.0,1.0893103092783507,1.5059061855670104,0.7591865979381442,2.192974226804124,0.48181030927835045,1.7474762886597939,0.8060546391752578,2.0984536082474228,0.49581649484536067,-1339.8438
42.0,1.0,166.0,1.1313938144329896,1.612162886597938,0.8461123711340207,2.2389113402061858,0.42190515463917533,1.8644154639175257,0.7988680412371134,2.144919587628866,0.5808474226804123,-1338.8672
42.0,1.0,167.0,1.243638144329897,1.7002742268041238,0.9172443298969073,2.2688731958762887,0.525260824742268,1.9375443298969073,0.9333907216494846,2.130083505154639,0.6579886597938144,-1337.8906
42.0,1.0,168.0,1.1754309278350517,1.6521670103092783,0.886958762886598,2.115121649484536,0.6409711340206186,1.8530072164948455,1.2007680412371136,2.0123443298969073,0.7774886597938144,-1336.9141
42.0,1.0,169.0,0.9795422680412369,1.5382463917525773,0.8950360824742268,2.0020340206185567,0.6385041237113402,1.816934020618557,1.4306731958762886,2.006015463917526,0.9546020618556701,-1335.9375
42.0,1.0,170.0,1.016624742268041,1.660017525773196,1.027479381443299,2.104782474226804,0.6954979381443298,1.9733546391752574,1.5905474226804124,2.2534278350515464,1.120821649484536,-1334.9609
42.0,1.0,171.0,1.0067216494845361,1.7594824742268043,1.1008298969072166,2.2874329896907217,0.6403680412371134,2.157377319587629,1.5512,2.37709587628866,1.1522546391752577,-1333.9844
42.0,1.0,172.0,0.7800742268041236,1.5093412371134018,1.002659793814433,2.265180412371134,0.4192855670103092,2.0984577319587627,1.2957226804123712,2.2768453608247423,1.0172731958762886,-1333.0078
42.0,1.0,173.0,0.7658649484536082,1.5029432989690723,0.9383268041237114,2.2731443298969074,0.32209793814432985,2.1197958762886597,1.1614113402061856,2.2916443298969074,0.8801731958762887,-1332.0313
42.0,1.0,174.0,0.6011855670103092,1.3160865979381444,0.7452690721649483,2.2013721649484537,0.17503608247422678,2.0190123711340204,1.0197474226804124,2.2743917525773196,0.757356701030928,-1331.0547
42.0,1.0,175.0,0.6117721649484534,1.354261855670103,0.6790226804123711,2.303025773195876,0.2197824742268041,2.0288948453608247,0.9481742268041237,2.3392505154639176,0.7182123711340208,-1330.0781
42.0,1.0,176.0,0.7691845360824741,1.5815969072164948,0.825056701030928,2.4290247422680413,0.4071711340206185,2.129555670103093,0.9589896907216495,2.4432,0.7225443298969071,-1329.1016
42.0,1.0,177.0,0.8502278350515465,1.6866515463917526,0.8943783505154641,2.446187628865979,0.6425443298969072,2.145881443298969,1.2025680412371134,2.4287670103092784,0.8871505154639175,-1328.125
42.0,1.0,178.0,1.0442917525773197,1.8354556701030926,1.084441237113402,2.603020618556701,0.8937288659793814,2.2703711340206185,1.4156030927835053,2.4664989690721653,0.9494072164948454,-1327.1484
42.0,1.0,179.0,1.116660824742268,1.9244886597938144,1.2380319587628865,2.669120618556701,1.0029546391752577,2.3581515463917526,1.4293948453608247,2.434177319587629,0.9758329896907216,-1326.1719
42.0,1.0,180.0,1.1072443298969072,1.8827525773195875,1.340680412371134,2.681511340206186,0.9828711340206185,2.37350412371134,1.4697948453608247,2.441401030927835,1.1122082474226804,-1325.1953
42.0,1.0,181.0,1.0803041237113402,1.8861690721649487,1.336445360824742,2.719955670103093,0.9611659793814433,2.234820618556701,1.3564783505154638,2.390346391752577,1.1069154639175258,-1324.2188
42.0,1.0,182.0,1.209362886597938,2.035994845360825,1.4211134020618559,2.6936309278350516,1.161158762886598,2.1826505154639175,1.477941237113402,2.3913886597938143,1.2771247422680412,-1323.2422
42.0,1.0,183.0,1.3514701030927836,2.117941237113402,1.5594649484536083,2.5949721649484534,1.3901835051546392,2.2451288659793813,1.6486639175257731,2.402429896907216,1.3898721649484536,-1322.2656
42.0,1.0,184.0,1.3408845360824742,2.1821154639175258,1.5874938144329895,2.5728515463917527,1.4201494845360825,2.2599659793814433,1.6176917525773196,2.490157731958763,1.288458762886598,-1321.2891
42.0,1.0,185.0,1.2949061855670103,2.1842082474226805,1.4583628865979383,2.476484536082474,1.2755711340206186,2.1314762886597935,1.4206659793814431,2.486182474226804,1.1305051546391751,-1320.3125
42.0,1.0,186.0,1.270255670103093,2.2424515463917527,1.4634154639175259,2.4800938144329896,1.2896628865979383,2.1717360824742267,1.5249742268041238,2.5105,1.1438731958762887,-1319.3359
42.0,1.0,187.0,1.3732948453608247,2.300279381443299,1.5943463917525773,2.6787711340206184,1.3046670103092783,2.334822680412371,1.6507546391752577,2.6127072164948455,1.3007082474226805,-1318.3594
42.0,1.0,188.0,1.5446927835051547,2.4642896907216496,1.8141865979381444,2.7889948453608246,1.4624865979381443,2.5448958762886598,1.862098969072165,2.6941618556701035,1.6114711340206187,-1317.3828
42.0,1.0,189.0,1.5612886597938143,2.512937113402062,1.8517103092783507,2.7642195876288658,1.6014309278350514,2.5174711340206186,1.9787907216494847,2.598027835051546,1.7178948453608247,-1316.4063
42.0,1.0,190.0,1.5165288659793816,2.58530412371134,1.9209175257731959,2.8020298969072166,1.7137268041237115,2.471245360824742,2.0367298969072167,2.589760824742268,1.6415969072164949,-1315.4297
42.0,1.0,191.0,1.5330649484536083,2.599959793814433,2.031734020618557,2.9064237113402065,1.7659845360824742,2.509078350515464,2.026564948453608,2.6169835051546393,1.5742402061855671,-1314.4531
42.0,1.0,192.0,1.4871185567010308,2.4781907216494847,1.855341237113402,2.819070103092783,1.6739020618556701,2.338619587628866,1.8734989690721648,2.4505639175257734,1.3945567010309277,-1313.4766
42.0,1.0,193.0,1.5131762886597941,2.4806896907216496,1.7435030927835051,2.7870030927835057,1.6694268041237115,2.2798752577319585,1.786542268041237,2.346358762886598,1.2190536082474226,-1312.5
42.0,1.0,194.0,1.5610649484536083,2.4745134020618558,1.685201030927835,2.6918896907216494,1.7636340206185566,2.1453907216494845,1.936759793814433,2.1868288659793813,1.2583051546391752,-1311.5234
42.0,1.0,195.0,1.5542134020618557,2.3701783505154643,1.4600402061855668,2.577426804123711,1.6822659793814434,2.092794845360825,1.851581443298969,2.0804938144329896,1.1852340206185568,-1310.5469
42.0,1.0,196.0,1.4694309278350515,2.4126113402061855,1.4017061855670103,2.5150525773195875,1.6324907216494844,2.079060824742268,1.7867835051546392,2.0941082474226804,1.1904845360824743,-1309.5703
42.0,1.0,197.0,1.5867639175257733,2.574517525773196,1.5475463917525774,2.620019587628866,1.6270432989690724,2.1069752577319587,1.791914432989691,2.1911525773195875,1.3539855670103094,-1308.5938
42.0,1.0,198.0,1.6461030927835052,2.601305154639175,1.6089824742268042,2.6148247422680413,1.6097134020618558,2.17110412371134,1.78290412371134,2.228965979381443,1.4445670103092783,-1307.6172
42.0,1.0,199.0,1.6739762886597938,2.495022680412371,1.4825154639175255,2.6333,1.5028103092783507,2.207976288659794,1.603756701030928,2.2276453608247424,1.21469793814433,-1306.6406
42.0,1.0,200.0,1.871559793814433,2.619373195876289,1.5027587628865977,2.7637824742268045,1.460321649484536,2.317344329896907,1.5972010309278353,2.2872103092783505,1.0982907216494844,-1305.6641
42.0,1.0,201.0,1.8917958762886598,2.6446494845360826,1.46470206185567,2.7395360824742268,1.3028072164948452,2.245078350515464,1.4038927835051547,2.2156134020618556,0.8748247422680413,-1304.6875
42.0,1.0,202.0,1.8110804123711342,2.556517525773196,1.4172391752577318,2.6302628865979383,1.2346536082474229,2.099128865979382,1.276018556701031,2.102528865979381,0.7006350515463916,-1303.7109
42.0,1.0,203.0,1.6288845360824742,2.4595536082474228,1.313383505154639,2.5251515463917524,1.1914628865979382,2.0091309278350513,1.2642082474226806,2.038063917525773,0.6567793814432988,-1302.7344
42.0,1.0,204.0,1.3475061855670103,2.256636082474227,1.1532608247422682,2.3556938144329895,1.0221536082474227,1.89109587628866,1.1459072164948452,1.8915309278350516,0.5393659793814433,-1301.7578
42.0,1.0,205.0,1.2120670103092785,2.084288659793814,1.1234041237113404,2.3046917525773196,1.0469164948453606,1.8755020618556701,1.114841237113402,1.8727979381443298,0.6132103092783506,-1300.7813
42.0,1.0,206.0,1.1352628865979382,1.9491237113402062,1.1033525773195876,2.361883505154639,1.1256422680412372,1.891727835051546,1.24429793814433,1.883039175257732,0.8368917525773196,-1299.8047
42.0,1.0,207.0,1.1441082474226805,1.9374154639175258,1.1225835051546391,2.3624979381443296,1.1361907216494844,1.929717525773196,1.3541762886597937,1.9185360824742266,0.9044103092783505,-1298.8281
42.0,1.0,208.0,1.0661773195876287,1.9567917525773195,1.1907144329896908,2.3211876288659794,1.0232443298969074,1.9411814432989691,1.3490247422680413,2.0044876288659794,0.9440154639175258,-1297.8516
42.0,1.0,209.0,0.7787474226804122,1.7405103092783505,0.9620886597938144,2.1429659793814433,0.743219587628866,1.781341237113402,1.068460824742268,1.937942268041237,0.7274628865979382,-1296.875
42.0,1.0,210.0,0.5219226804123711,1.5351278350515463,0.8096628865979381,1.947659793814433,0.6067247422680412,1.625185567010309,1.0131515463917526,1.862922680412371,0.7656989690721652,-1295.8984
42.0,1.0,211.0,0.46786494845360826,1.6107268041237113,0.9824886597938144,1.9371670103092784,0.7420082474226805,1.7413030927835051,1.258540206185567,1.9517762886597936,0.9864989690721649,-1294.9219
42.0,1.0,212.0,0.7110010309278351,1.8928257731958764,1.3325474226804124,2.162457731958763,0.9583762886597937,2.1295659793814434,1.5300917525773197,2.2671938144329897,1.2366752577319586,-1293.9453
42.0,1.0,213.0,0.8331783505154639,1.9503154639175257,1.4390103092783506,2.365661855670103,0.9795649484536083,2.3671587628865978,1.681661855670103,2.42280206185567,1.439360824742268,-1292.9688
42.0,1.0,214.0,0.7954670103092782,1.8826927835051546,1.4354855670103095,2.3965,0.9629855670103094,2.3066082474226803,1.7216804123711342,2.3729546391752576,1.4499329896907218,-1291.9922
42.0,1.0,215.0,1.0181134020618556,2.0352474226804125,1.4764257731958763,2.365784536082474,1.0785247422680413,2.221139175257732,1.6554340206185567,2.3218113402061857,1.3496329896907218,-1291.0156
42.0,1.0,216.0,1.3229711340206183,2.1774536082474225,1.5574628865979383,2.4967587628865977,1.2083628865979381,2.263360824742268,1.661122680412371,2.4148268041237113,1.354480412371134,-1290.0391
42.0,1.0,217.0,1.53709793814433,2.1535917525773196,1.5177701030927835,2.6657443298969072,1.2911701030927836,2.3545917525773197,1.5848690721649485,2.5507123711340203,1.1796185567010309,-1289.0625
42.0,1.0,218.0,1.6604484536082476,2.164879381443299,1.534839175257732,2.768989690721649,1.2018226804123713,2.422262886597938,1.5179711340206186,2.6126546391752576,0.991577319587629,-1288.0859
42.0,1.0,219.0,1.915676288659794,2.5357113402061855,1.8491917525773196,3.0615907216494844,1.2091484536082475,2.734321649484536,1.5932,2.928040206185567,1.1514845360824744,-1287.1094
42.0,1.0,220.0,1.8838360824742268,2.584385567010309,1.8572134020618556,3.154660824742268,1.1901463917525772,2.7902597938144327,1.6123257731958762,3.019454639175258,1.2117546391752576,-1286.1328
42.0,1.0,221.0,1.638257731958763,2.3473257731958763,1.653378350515464,3.0768123711340207,1.0642226804123711,2.6707103092783506,1.4847855670103092,2.8539443298969074,1.0915092783505156,-1285.1563
42.0,1.0,222.0,1.4149443298969073,2.1378525773195878,1.5126412371134021,2.790525773195876,1.0228257731958765,2.439554639175258,1.4294814432989693,2.563483505154639,1.1810752577319588,-1284.1797
42.0,1.0,223.0,1.4236927835051545,2.147605154639175,1.5974783505154642,2.664939175257732,1.1375865979381443,2.319976288659794,1.604718556701031,2.467038144329897,1.4640917525773196,-1283.2031
42.0,1.0,224.0,1.597142268041237,2.3173298969072165,1.767654639175258,2.8541690721649484,1.319640206185567,2.4913113402061855,1.8499257731958763,2.6957030927835053,1.661925773195876,-1282.2266
42.0,1.0,225.0,1.5439082474226804,2.290864948453608,1.762324742268041,2.967521649484536,1.2916340206185566,2.563077319587629,1.865342268041237,2.753879381443299,1.6801886597938147,-1281.25
42.0,1.0,226.0,1.4542443298969072,2.253558762886598,1.7379061855670102,2.946217525773196,1.2063257731958763,2.562442268041237,1.86820206185567,2.7059865979381446,1.590382474226804,-1280.2734
42.0,1.0,227.0,1.384577319587629,2.2484144329896907,1.629,2.8597938144329893,1.1215762886597938,2.517301030927835,1.8291463917525772,2.6460298969072165,1.5172226804123712,-1279.2969
42.0,1.0,228.0,1.0995804123711341,2.096935051546392,1.442545360824742,2.5641319587628866,0.997119587628866,2.3592556701030927,1.7024917525773196,2.588101030927835,1.4356030927835053,-1278.3203
42.0,1.0,229.0,0.9380845360824743,1.9535556701030927,1.3019969072164947,2.458217525773196,0.9179824742268042,2.235473195876289,1.482498969072165,2.5112216494845363,1.3248505154639176,-1277.3438
42.0,1.0,230.0,0.9814515463917527,1.9130762886597938,1.3533247422680412,2.489678350515464,0.8976783505154641,2.2802525773195876,1.3572711340206187,2.5472072164948454,1.255321649484536,-1276.3672
42.0,1.0,231.0,0.9695123711340206,1.8433463917525772,1.3607958762886596,2.4950659793814434,0.8448567010309279,2.4384587628865977,1.212821649484536,2.6314010309278353,1.0214690721649486,-1275.3906
42.0,1.0,232.0,1.1031443298969072,1.9873762886597937,1.5041762886597938,2.648155670103093,1.0369865979381443,2.559317525773196,1.351040206185567,2.7386319587628862,1.158758762886598,-1274.4141
42.0,1.0,233.0,1.318839175257732,2.1563989690721646,1.6069855670103095,2.697107216494845,1.3125855670103093,2.5095134020618555,1.576636082474227,2.7249371134020617,1.3577762886597937,-1273.4375
42.0,1.0,234.0,1.2322835051546392,2.1771969072164947,1.5604154639175256,2.5424969072164947,1.2125103092783505,2.3748144329896905,1.517584536082474,2.6458000000000004,1.3083144329896907,-1272.4609
42.0,1.0,235.0,1.1605618556701032,2.2624051546391755,1.6375144329896907,2.480663917525773,1.1045979381443298,2.3563412371134023,1.5135680412371135,2.668141237113402,1.3103206185567011,-1271.4844
42.0,1.0,236.0,1.0258907216494844,2.191271134020618,1.633359793814433,2.4172927835051548,0.9626773195876288,2.405158762886598,1.5098381443298967,2.699938144329897,1.2467340206185566,-1270.5078
42.0,1.0,237.0,0.943115463917526,2.16699793814433,1.7189948453608248,2.4853886597938146,0.9547711340206186,2.595045360824742,1.6948917525773195,2.841601030927835,1.518843298969072,-1269.5313
42.0,1.0,238.0,1.1134268041237114,2.3231257731958763,1.918338144329897,2.637548453608247,1.155594845360825,2.8087824742268044,1.8742226804123712,2.960941237113402,1.7830639175257732,-1268.5547
42.0,1.0,239.0,1.2932814432989692,2.553375257731959,2.1645804123711336,2.7655505154639175,1.5522649484536084,3.055894845360825,2.167523711340206,3.060522680412371,2.1384051546391754,-1267.5781
42.0,1.0,240.0,1.4407525773195875,2.694411340206186,2.244059793814433,2.881698969072165,1.6288845360824742,3.244060824742268,2.2927123711340207,3.1711814432989693,2.2509072164948454,-1266.6016
42.0,1.0,241.0,1.3668865979381444,2.5969927835051547,2.1629711340206184,2.7520948453608245,1.4885556701030929,3.229425773195876,2.137952577319588,3.1803360824742266,2.0217082474226804,-1265.625
42.0,1.0,242.0,1.4267731958762886,2.786772164948454,2.322154639175258,2.865878350515464,1.5840701030927835,3.431526804123711,2.2210350515463917,3.324412371134021,2.089660824742268,-1264.6484
42.0,1.0,243.0,1.5310113402061858,2.933030927835052,2.3661432989690723,2.855278350515464,1.5511721649484536,3.389148453608248,2.2657453608247424,3.2361319587628867,2.0485340206185567,-1263.6719
42.0,1.0,244.0,1.493596907216495,2.8069309278350514,2.0973134020618556,2.634865979381443,1.4609010309278352,3.100621649484536,2.0295092783505155,2.956660824742268,1.7349278350515465,-1262.6953
42.0,1.0,245.0,1.3342835051546391,2.595318556701031,1.8040020618556702,2.39189793814433,1.3397546391752577,2.8072154639175255,1.6995113402061854,2.7409371134020617,1.3944474226804122,-1261.7188
42.0,1.0,246.0,1.1165123711340206,2.2846721649484536,1.5570288659793814,2.224883505154639,1.0768020618556702,2.645744329896907,1.3701443298969072,2.6198082474226805,1.113739175257732,-1260.7422
42.0,1.0,247.0,0.8685061855670102,1.92420412371134,1.3088577319587629,2.1394185567010306,0.7694969072164948,2.5762309278350513,0.9683659793814433,2.5511917525773193,0.9200072164948454,-1259.7656
42.0,1.0,248.0,0.9534072164948454,1.9819670103092784,1.3839010309278348,2.3307742268041234,0.7909515463917526,2.7323680412371134,0.9821371134020619,2.724378350515464,0.9051773195876288,-1258.7891
42.0,1.0,249.0,1.0841536082474228,2.174940206185567,1.5223711340206187,2.5204505154639176,0.7677958762886599,2.882301030927835,1.0432432989690723,2.8600711340206186,0.9903855670103092,-1257.8125
42.0,1.0,250.0,1.0969938144329898,2.2147257731958763,1.5029938144329897,2.6606742268041237,0.6824711340206184,2.967878350515464,0.9428659793814432,2.9087536082474226,1.0290463917525772,-1256.8359
42.0,1.0,251.0,1.1241164948453608,2.2001731958762885,1.4931391752577319,2.674992783505155,0.7029268041237114,3.0000670103092784,0.9150268041237113,2.903039175257732,1.0123907216494845,-1255.8594
42.0,1.0,252.0,1.1324773195876288,2.122163917525773,1.5625288659793812,2.6281865979381442,0.7449639175257732,2.984928865979381,0.9510144329896906,2.929694845360825,0.9487762886597938,-1254.8828
42.0,1.0,253.0,1.171341237113402,2.250505154639175,1.6410742268041234,2.599313402061856,0.8624979381443297,2.9884144329896905,1.0997525773195878,2.972324742268041,1.103259793814433,-1253.9063
42.0,1.0,254.0,1.172618556701031,2.242639175257732,1.6035288659793816,2.592917525773196,1.0605742268041236,2.998681443298969,1.2958154639175257,2.9474680412371135,1.2731680412371134,-1252.9297
42.0,1.0,255.0,0.963841237113402,2.0163896907216494,1.5848824742268042,2.4358680412371134,1.1285020618556703,2.8989381443298967,1.4185381443298968,2.8285134020618554,1.4370721649484537,-1251.9531
42.0,1.0,256.0,0.6756092783505154,1.8293742268041235,1.4210463917525773,2.2540701030927837,1.0871123711340207,2.767539175257732,1.5656381443298968,2.6781185567010306,1.5170804123711341,-1250.9766
42.0,1.0,257.0,0.38015051546391754,1.690768041237113,1.0207154639175258,2.071281443298969,0.8894948453608248,2.533150515463918,1.4455082474226806,2.4703278350515463,1.3828082474226804,-1250.0
42.0,1.0,258.0,0.09492371134020625,1.2842474226804124,0.6637979381443297,1.8170948453608249,0.6246567010309279,2.19070412371134,1.2048371134020617,2.1834092783505152,1.1993474226804124,-1249.0234
42.0,1.0,259.0,0.00444226804123708,1.1657432989690721,0.6093195876288658,1.7511804123711339,0.5520391752577319,2.1221268041237114,1.1747257731958762,2.0515515463917526,1.1340164948453606,-1248.0469
42.0,1.0,260.0,0.15837319587628862,1.316157731958763,0.7038175257731959,1.8734783505154637,0.6722257731958764,2.2917917525773195,1.2709505154639176,2.1313123711340207,1.1197072164948454,-1247.0703
42.0,1.0,261.0,0.4024793814432989,1.4243680412371134,0.8168072164948453,2.051163917525773,0.822917525773196,2.405043298969072,1.296394845360825,2.2816319587628864,1.036181443298969,-1246.0938
42.0,1.0,262.0,0.6019340206185566,1.5256443298969071,0.8917690721649484,2.2289896907216495,0.8109762886597938,2.5186453608247423,1.1327237113402062,2.344357731958763,0.8656762886597938,-1245.1172
42.0,1.0,263.0,0.8676804123711341,1.7868309278350516,1.0963350515463919,2.5073268041237116,0.750180412371134,2.8163113402061857,1.0671092783505154,2.548678350515464,0.8240020618556702,-1244.1406
42.0,1.0,264.0,1.1023371134020619,2.0179546391752576,1.3057474226804124,2.7595340206185566,0.8293381443298968,2.9761288659793816,1.1322752577319588,2.651803092783505,0.8794948453608247,-1243.1641
42.0,1.0,265.0,1.0455927835051546,2.0771721649484536,1.3870649484536082,2.6479711340206187,1.0262371134020618,2.9234505154639177,1.3080824742268042,2.5339701030927837,1.0492257731958763,-1242.1875
42.0,1.0,266.0,0.9452051546391752,2.0191288659793813,1.339680412371134,2.4678247422680415,1.2077278350515464,2.8271515463917525,1.4935113402061855,2.4097422680412373,1.2574123711340206,-1241.2109
42.0,1.0,267.0,1.027918556701031,1.9627536082474226,1.3367546391752576,2.3943876288659793,1.330619587628866,2.7289927835051544,1.4942690721649483,2.2646329896907216,1.2649855670103092,-1240.2344
42.0,1.0,268.0,1.1773711340206188,2.0592082474226805,1.3766103092783506,2.3793381443298967,1.3715175257731957,2.697945360824742,1.4187154639175257,2.3200824742268042,1.1983463917525772,-1239.2578
42.0,1.0,269.0,1.184461855670103,2.160482474226804,1.4548041237113403,2.258716494845361,1.3396505154639176,2.6578886597938145,1.444231958762887,2.3148082474226803,1.2258237113402062,-1238.2813
42.0,1.0,270.0,1.1356443298969072,2.0914319587628865,1.3922144329896908,2.0589680412371134,1.2640113402061857,2.452284536082474,1.437144329896907,2.191540206185567,1.188462886597938,-1237.3047
42.0,1.0,271.0,1.4056484536082472,2.2299927835051543,1.394738144329897,2.070241237113402,1.3991195876288658,2.382451546391753,1.5587515463917527,2.1683474226804123,1.1808298969072164,-1236.3281
42.0,1.0,272.0,1.6810134020618557,2.4947752577319586,1.6075319587628867,2.2383979381443297,1.7606494845360827,2.497617525773196,1.8321536082474226,2.2299886597938143,1.4518103092783505,-1235.3516
42.0,1.0,273.0,1.4559144329896907,2.4922082474226803,1.6714340206185567,2.2475041237113405,1.8043371134020618,2.456958762886598,1.9181701030927836,2.174971134020619,1.539738144329897,-1234.375
42.0,1.0,274.0,1.0775536082474226,2.1027701030927837,1.264018556701031,2.0655,1.4091494845360826,2.2493381443298968,1.4677237113402062,1.9319701030927834,1.2040298969072165,-1233.3984
42.0,1.0,275.0,1.004258762886598,1.8859463917525774,1.0072865979381442,2.0858371134020617,1.12609587628866,2.2242020618556704,1.1429278350515464,1.8911020618556702,0.8856041237113403,-1232.4219
42.0,1.0,276.0,1.1054608247422681,1.9490701030927835,1.0505886597938143,2.2177855670103095,1.0852309278350514,2.247258762886598,1.1165958762886599,1.8990340206185568,0.8248525773195876,-1231.4453
42.0,1.0,277.0,1.2855948453608246,2.1871360824742268,1.2211432989690723,2.3932773195876287,1.4962072164948454,2.325505154639175,1.51859587628866,1.9283474226804125,1.0986360824742267,-1230.4688
42.0,1.0,278.0,1.3258237113402063,2.3299659793814436,1.3277061855670103,2.4907938144329895,1.8052525773195875,2.378862886597938,1.850221649484536,2.0167072164948454,1.4188793814432992,-1229.4922
42.0,1.0,279.0,1.3224123711340205,2.3608051546391753,1.343273195876289,2.3465288659793817,1.8641927835051548,2.2817134020618557,1.9617628865979382,2.0185670103092783,1.4502494845360827,-1228.5156
42.0,1.0,280.0,1.2771309278350516,2.3003701030927832,1.2811041237113403,2.1961639175257734,1.8441061855670102,2.1744948453608246,2.0390865979381445,1.8933288659793812,1.5044082474226805,-1227.5391
42.0,1.0,281.0,1.2550041237113403,2.327860824742268,1.216260824742268,2.3991247422680413,1.7149123711340206,2.3351278350515465,1.9240907216494845,1.9522484536082474,1.4693092783505155,-1226.5625
42.0,1.0,282.0,1.4814329896907215,2.553160824742268,1.418357731958763,2.7024474226804127,1.899583505154639,2.62600206185567,2.070919587628866,2.137662886597938,1.5133896907216495,-1225.5859
42.0,1.0,283.0,1.6475237113402061,2.7405103092783505,1.5943536082474226,2.731852577319588,2.1244278350515464,2.734080412371134,2.3101340206185568,2.1894515463917528,1.7209195876288659,-1224.6094
42.0,1.0,284.0,1.541018556701031,2.546294845360825,1.4981628865979382,2.503068041237113,1.907198969072165,2.5779082474226804,2.0758226804123714,2.128579381443299,1.6971835051546391,-1223.6328
42.0,1.0,285.0,1.2293938144329897,2.234218556701031,1.214337113402062,2.140223711340206,1.582655670103093,2.1964484536082476,1.8039546391752577,1.8565288659793815,1.4292896907216495,-1222.6563
42.0,1.0,286.0,1.0240855670103093,1.973560824742268,0.9068577319587628,1.8443371134020616,1.3284123711340206,1.8343030927835051,1.5728958762886598,1.583759793814433,1.154698969072165,-1221.6797
42.0,1.0,287.0,1.0610752577319587,1.9727103092783507,0.9293391752577319,1.8684432989690722,1.2745989690721649,1.7936453608247422,1.5379731958762888,1.610959793814433,1.1708474226804124,-1220.7031
42.0,1.0,288.0,0.9316948453608247,1.9700505154639174,0.8776536082474227,1.820915463917526,1.1818051546391752,1.7415329896907217,1.4444257731958763,1.6119030927835052,1.0864999999999998,-1219.7266
42.0,1.0,289.0,0.8447969072164949,1.9446670103092782,0.8822639175257732,1.7891804123711341,1.0895350515463917,1.8156690721649484,1.4057824742268044,1.6388536082474225,1.0528927835051547,-1218.75
42.0,1.0,290.0,0.7764041237113402,1.8492752577319589,0.8217432989690721,1.6688979381443296,0.9437041237113402,1.7536206185567011,1.2717020618556703,1.5424247422680415,0.9899896907216494,-1217.7734
42.0,1.0,291.0,0.6623020618556702,1.7421587628865982,0.7332865979381443,1.7117721649484536,0.7306701030927835,1.7848577319587628,1.1233268041237112,1.6085164948453607,0.9881896907216494,-1216.7969
42.0,1.0,292.0,0.6366391752577318,1.7239123711340205,0.7257835051546392,1.826443298969072,0.7050216494845362,1.892440206185567,1.0831113402061856,1.739598969072165,1.0393443298969072,-1215.8203
42.0,1.0,293.0,0.6554824742268042,1.699863917525773,0.6982927835051547,1.81179793814433,0.8200443298969071,1.823701030927835,1.0414494845360824,1.7211958762886597,0.8724072164948453,-1214.8438
42.0,1.0,294.0,0.7181628865979381,1.642796907216495,0.6346989690721649,1.9100082474226805,0.9306288659793814,1.8708577319587627,0.989740206185567,1.7893237113402063,0.7008731958762886,-1213.8672
42.0,1.0,295.0,0.7570845360824743,1.6787670103092784,0.6310958762886599,2.0258484536082473,0.9755587628865979,1.9963072164948452,0.8918268041237113,1.9113917525773196,0.7150608247422681,-1212.8906
42.0,1.0,296.0,0.6655061855670102,1.6232628865979382,0.5850896907216494,1.920518556701031,0.900959793814433,1.9754340206185566,0.8163226804123712,1.9205474226804125,0.5673247422680413,-1211.9141
42.0,1.0,297.0,0.5787195876288659,1.7101855670103094,0.6833762886597937,1.9522701030927836,0.8275144329896907,2.0103123711340207,0.9186958762886598,2.0048762886597937,0.6054958762886598,-1210.9375
42.0,1.0,298.0,0.8642278350515464,1.9309237113402062,0.9474010309278351,2.1568536082474226,1.0033175257731959,2.080056701030928,1.1543474226804125,2.1780309278350516,0.7915288659793817,-1209.9609
42.0,1.0,299.0,1.3115896907216495,2.2397402061855667,1.4284876288659794,2.5500639175257733,1.454579381443299,2.4886896907216496,1.5910628865979382,2.6117701030927836,1.2909329896907216,-1208.9844
42.0,1.0,300.0,1.516538144329897,2.3186474226804124,1.507878350515464,2.5714309278350513,1.5904113402061857,2.648307216494845,1.660340206185567,2.6982721649484533,1.440578350515464,-1208.0078
42.0,1.0,301.0,1.5324989690721649,2.275351546391753,1.4107319587628866,2.548976288659794,1.4360835051546392,2.673782474226804,1.5358134020618555,2.657143298969072,1.3141824742268042,-1207.0313
42.0,1.0,302.0,1.5913670103092785,2.2982886597938146,1.404359793814433,2.597439175257732,1.2422298969072165,2.7261371134020616,1.3632268041237114,2.70740412371134,1.1571958762886598,-1206.0547
42.0,1.0,303.0,1.5319701030927835,2.276711340206185,1.3628948453608245,2.425117525773196,1.1514546391752578,2.568486597938144,1.299057731958763,2.560347422680412,1.1086494845360826,-1205.0781
42.0,1.0,304.0,1.3614329896907216,2.3012938144329893,1.321721649484536,2.2144432989690723,1.2174731958762888,2.355024742268041,1.3400340206185566,2.396881443298969,1.1293030927835053,-1204.1016
42.0,1.0,305.0,1.4060865979381443,2.4694082474226806,1.4084515463917526,2.2411154639175255,1.4266938144329897,2.398441237113402,1.4376,2.4938711340206186,1.2009360824742268,-1203.125
42.0,1.0,306.0,1.4440494845360825,2.4095690721649485,1.4443907216494845,2.1847381443298968,1.4487773195876288,2.3563855670103093,1.4980762886597938,2.523901030927835,1.167758762886598,-1202.1484
42.0,1.0,307.0,1.5461845360824744,2.410282474226804,1.4602123711340207,2.263414432989691,1.4112319587628865,2.3288783505154638,1.5659288659793815,2.4647484536082476,1.2090371134020619,-1201.1719
42.0,1.0,308.0,1.5591659793814434,2.38709587628866,1.4543185567010308,2.3080628865979382,1.4388164948453608,2.2511793814432988,1.6039340206185564,2.321960824742268,1.2849443298969072,-1200.1953
42.0,1.0,309.0,1.2240773195876289,2.06010412371134,1.2102896907216494,2.034237113402062,1.2425824742268041,1.9782092783505156,1.4092556701030927,1.9823608247422682,1.2622288659793814,-1199.2188
42.0,1.0,310.0,0.9988886597938144,1.9703298969072167,1.1080876288659793,1.956862886597938,1.1757340206185567,1.9818298969072163,1.2948134020618558,2.000521649484536,1.2233865979381442,-1198.2422
42.0,1.0,311.0,1.108938144329897,2.1096896907216496,1.304881443298969,2.1624567010309277,1.3187690721649483,2.174923711340206,1.4941329896907214,2.183020618556701,1.39050412371134,-1197.2656
42.0,1.0,312.0,1.0121597938144329,2.1164907216494844,1.4916824742268042,2.1936092783505154,1.376718556701031,2.2639329896907214,1.6653422680412373,2.3540288659793815,1.5627154639175258,-1196.2891
42.0,1.0,313.0,0.9024649484536083,2.065665979381443,1.4457,2.214477319587629,1.2472226804123712,2.30289793814433,1.6105082474226804,2.3998164948453606,1.453637113402062,-1195.3125
42.0,1.0,314.0,0.9791278350515463,2.082035051546392,1.5192072164948454,2.29629793814433,1.1915824742268042,2.359422680412371,1.5929927835051545,2.4361938144329898,1.4304556701030928,-1194.3359
42.0,1.0,315.0,0.9905484536082475,2.0986587628865983,1.6054185567010308,2.202543298969072,1.3616711340206185,2.2691515463917526,1.7486969072164948,2.3676309278350516,1.5594938144329897,-1193.3594
42.0,1.0,316.0,0.9419927835051548,2.215344329896907,1.666022680412371,1.9670917525773195,1.5453721649484538,2.1073474226804123,2.0118164948453607,2.315477319587629,1.7838340206185568,-1192.3828
42.0,1.0,317.0,0.9255824742268041,2.2952443298969074,1.680261855670103,1.7784938144329898,1.4947556701030926,1.8948474226804126,2.006438144329897,2.1630092783505157,1.790961855670103,-1191.4063
42.0,1.0,318.0,1.0599556701030928,2.374374226804124,1.7233432989690725,1.807381443298969,1.4221907216494845,1.9449103092783504,1.9037051546391752,2.2513041237113405,1.6905865979381443,-1190.4297
42.0,1.0,319.0,1.202778350515464,2.393954639175258,1.770263917525773,1.9288845360824742,1.3501721649484537,2.0652329896907213,1.7161175257731958,2.388259793814433,1.513281443298969,-1189.4531
42.0,1.0,320.0,1.2455144329896908,2.409578350515464,1.7823350515463918,2.149522680412371,1.4014185567010309,2.205738144329897,1.705577319587629,2.4987288659793814,1.5440649484536084,-1188.4766
42.0,1.0,321.0,1.160019587628866,2.3714927835051545,1.8162505154639175,2.210324742268041,1.5330886597938145,2.1917731958762885,1.9901206185567009,2.5049886597938147,1.6946793814432988,-1187.5
42.0,1.0,322.0,1.2308072164948454,2.45340206185567,1.9818484536082472,2.31909587628866,1.7631257731958763,2.2661453608247424,2.24999381443299,2.554478350515464,1.9552041237113402,-1186.5234
42.0,1.0,323.0,1.3843670103092784,2.4144505154639178,1.910198969072165,2.475981443298969,1.6487639175257731,2.360342268041237,2.06710206185567,2.542603092783505,1.8652030927835053,-1185.5469
42.0,1.0,324.0,1.222079381443299,2.2133453608247424,1.7331525773195877,2.2505144329896907,1.566520618556701,2.1764618556701034,1.9603896907216496,2.297920618556701,1.7170515463917526,-1184.5703
42.0,1.0,325.0,1.0697690721649484,2.1132113402061856,1.6496340206185567,2.15150206185567,1.6172845360824741,2.112330927835052,2.070682474226804,2.2672237113402063,1.7969783505154637,-1183.5938
42.0,1.0,326.0,0.977761855670103,2.142569072164948,1.6466567010309276,2.210761855670103,1.6264804123711338,2.1895525773195876,2.1424072164948456,2.3505556701030925,1.9065835051546394,-1182.6172
42.0,1.0,327.0,0.9764721649484537,2.1733381443298967,1.6413226804123713,2.1231556701030927,1.5988226804123713,2.1854701030927837,2.105259793814433,2.3588268041237117,1.9619298969072165,-1181.6406
42.0,1.0,328.0,1.1350865979381444,2.2941340206185568,1.7267618556701032,2.1337659793814434,1.6601051546391754,2.184145360824742,2.1978,2.4350268041237113,1.9856319587628866,-1180.6641
42.0,1.0,329.0,1.2828886597938145,2.4153907216494845,1.8654134020618556,2.1400309278350513,1.629898969072165,2.191359793814433,2.1833701030927837,2.440807216494845,1.988216494845361,-1179.6875
42.0,1.0,330.0,1.282422680412371,2.524777319587629,1.8845268041237115,2.1545061855670102,1.6393,2.2639030927835053,2.1130670103092783,2.4687896907216493,1.9153123711340208,-1178.7109
42.0,1.0,331.0,1.227941237113402,2.5714649484536083,1.807898969072165,2.0998226804123714,1.7942,2.224254639175258,2.148876288659794,2.44429793814433,1.8688051546391753,-1177.7344
42.0,1.0,332.0,1.2499670103092784,2.535958762886598,1.7296515463917526,2.1081309278350515,1.8739010309278352,2.256734020618557,2.185619587628866,2.403940206185567,1.8345855670103093,-1176.7578
42.0,1.0,333.0,1.2650855670103092,2.4225865979381442,1.7230041237113403,2.189238144329897,1.8102268041237113,2.3245907216494843,2.1086072164948457,2.418534020618557,1.8396329896907218,-1175.7813
42.0,1.0,334.0,1.2555030927835051,2.3679907216494844,1.7727938144329898,2.2695257731958765,1.7163072164948452,2.379498969072165,2.1357319587628867,2.4765938144329893,1.8866082474226804,-1174.8047
42.0,1.0,335.0,1.2682000000000002,2.4909639175257734,1.8436927835051546,2.2887886597938145,1.7986505154639174,2.4390938144329897,2.3270865979381443,2.507840206185567,2.011223711340206,-1173.8281
42.0,1.0,336.0,1.267438144329897,2.52450206185567,1.7817762886597939,2.2012144329896906,1.84780412371134,2.3524247422680413,2.3157257731958762,2.499290721649485,1.9861298969072168,-1172.8516
42.0,1.0,337.0,1.1473886597938145,2.243375257731959,1.5840134020618555,2.080981443298969,1.6672948453608247,2.1085103092783504,2.028157731958763,2.3656082474226805,1.7639886597938144,-1171.875
42.0,1.0,338.0,1.223142268041237,2.2268484536082473,1.5165072164948454,2.066887628865979,1.6088041237113402,1.9635690721649486,1.9737927835051545,2.17059793814433,1.7199020618556702,-1170.8984
42.0,1.0,339.0,1.1314969072164949,2.2122711340206185,1.484237113402062,2.003624742268041,1.6353628865979382,1.9420402061855668,2.113598969072165,2.126616494845361,1.826882474226804,-1169.9219
42.0,1.0,340.0,0.8880536082474226,2.036082474226804,1.3128463917525774,1.8963670103092782,1.336498969072165,1.9256020618556702,1.9363546391752577,2.137439175257732,1.6868123711340206,-1168.9453
42.0,1.0,341.0,0.7750546391752577,1.8931051546391753,1.1620721649484536,1.8318494845360824,1.0451927835051547,1.9316051546391753,1.6823247422680412,2.2068628865979383,1.4923721649484536,-1167.9688
42.0,1.0,342.0,0.6915051546391754,1.772319587628866,1.011422680412371,1.7285773195876286,0.9494422680412371,1.9364938144329897,1.5987701030927837,2.2478505154639175,1.4206865979381444,-1166.9922
42.0,1.0,343.0,0.6065639175257733,1.6999257731958761,0.9611515463917526,1.559961855670103,1.040016494845361,1.8600185567010308,1.6598515463917527,2.1477061855670105,1.4670587628865979,-1166.0156
42.0,1.0,344.0,0.8364752577319587,1.9353917525773197,1.1177958762886597,1.7756639175257731,1.1064938144329897,2.048515463917526,1.7090092783505155,2.252077319587629,1.464440206185567,-1165.0391
42.0,1.0,345.0,0.7689319587628867,1.9074082474226806,0.9639762886597939,1.8865463917525773,0.8995443298969071,2.0430958762886595,1.331198969072165,2.2746505154639176,1.2012206185567011,-1164.0625
42.0,1.0,346.0,0.7430845360824743,1.910165979381443,0.9697711340206184,1.9337546391752576,0.9407721649484537,2.0198113402061852,1.23070412371134,2.272523711340206,1.1585804123711338,-1163.0859
42.0,1.0,347.0,0.7959484536082474,1.9914072164948453,1.1653247422680413,1.9697567010309278,0.9513443298969072,2.0926092783505155,1.3598360824742268,2.331983505154639,1.2556721649484537,-1162.1094
42.0,1.0,348.0,0.7985896907216495,1.86829587628866,1.108159793814433,2.027334020618557,0.9914463917525773,2.1581,1.4661742268041236,2.346098969072165,1.195060824742268,-1161.1328
42.0,1.0,349.0,1.1646463917525773,2.158442268041237,1.2264907216494845,2.2854969072164946,1.1767432989690723,2.3286216494845364,1.5741319587628866,2.418358762886598,1.1963474226804123,-1160.1563
42.0,1.0,350.0,1.310639175257732,2.3079113402061853,1.4963123711340207,2.47139587628866,1.2816618556701032,2.399843298969072,1.6501969072164948,2.47539793814433,1.3758051546391754,-1159.1797
42.0,1.0,351.0,1.1704938144329897,2.2883876288659795,1.558060824742268,2.562101030927835,1.2181206185567008,2.5487247422680412,1.6728123711340206,2.6231742268041236,1.4524360824742268,-1158.2031
42.0,1.0,352.0,0.8107855670103092,2.0559938144329895,1.2784742268041238,2.354101030927835,0.874959793814433,2.3998958762886597,1.3989742268041239,2.4536319587628865,1.152480412371134,-1157.2266
42.0,1.0,353.0,0.3714536082474228,1.6803278350515465,0.9755309278350516,1.8881938144329897,0.5446247422680411,2.006535051546392,1.08559793814433,2.14189793814433,0.8969989690721649,-1156.25
42.0,1.0,354.0,0.32958453608247423,1.5527917525773196,0.9388505154639176,1.6994515463917523,0.6832051546391751,1.7811886597938142,1.1947082474226804,1.992018556701031,0.9572288659793815,-1155.2734
42.0,1.0,355.0,0.490720618556701,1.5742237113402062,1.0218298969072164,1.841225773195876,0.7829484536082474,1.8673701030927836,1.2777938144329897,2.059344329896907,0.9136670103092783,-1154.2969
42.0,1.0,356.0,0.5216783505154639,1.6854268041237113,1.0840680412371135,1.8670659793814433,0.9438072164948452,1.8730731958762885,1.4203257731958763,2.1495288659793816,1.0165721649484536,-1153.3203
42.0,1.0,357.0,0.5816515463917525,1.7395742268041237,1.0412701030927833,1.7041948453608247,0.9967268041237115,1.7007371134020617,1.4544164948453606,2.0434711340206184,1.025921649484536,-1152.3438
42.0,1.0,358.0,0.9334577319587629,1.9874391752577318,1.062219587628866,1.788358762886598,1.2101268041237114,1.7574896907216493,1.5582402061855671,2.0347061855670106,1.0410072164948454,-1151.3672
42.0,1.0,359.0,1.1970164948453608,2.319020618556701,1.3434659793814434,1.9946381443298968,1.4337762886597938,1.9922474226804123,1.737084536082474,2.1788948453608246,1.2490164948453608,-1150.3906
42.0,1.0,360.0,1.3997360824742269,2.503443298969072,1.5952298969072165,2.2239845360824746,1.6188463917525773,2.162772164948454,1.850503092783505,2.2604639175257732,1.3982814432989692,-1149.4141
42.0,1.0,361.0,1.5053288659793813,2.5550123711340205,1.5720041237113402,2.3874494845360825,1.757656701030928,2.215865979381443,1.9209103092783504,2.1961309278350516,1.4447164948453608,-1148.4375
42.0,1.0,362.0,1.5567597938144329,2.6132494845360825,1.6147092783505155,2.364156701030928,1.8476670103092785,2.1616917525773194,2.040453608247423,2.130118556701031,1.552303092783505,-1147.4609
42.0,1.0,363.0,1.397260824742268,2.519185567010309,1.5149319587628864,2.1947711340206184,1.687744329896907,2.0031268041237116,2.0791082474226803,2.0535,1.5999556701030926,-1146.4844
42.0,1.0,364.0,1.1220072164948454,2.30839793814433,1.282322680412371,2.005590721649485,1.4573237113402062,1.7001484536082474,1.9442917525773193,1.7773061855670105,1.4631247422680413,-1145.5078
42.0,1.0,365.0,1.0231680412371136,2.162026804123711,1.0925319587628866,1.814119587628866,1.3937113402061856,1.50700412371134,1.9117041237113404,1.5329164948453609,1.3357443298969072,-1144.5313
42.0,1.0,366.0,1.1773288659793812,2.2282917525773196,1.216519587628866,1.9752298969072164,1.386518556701031,1.6569103092783506,1.8253711340206187,1.592820618556701,1.3352680412371132,-1143.5547
42.0,1.0,367.0,1.1156618556701032,2.1675298969072165,1.3051845360824743,1.9142391752577321,1.2548216494845361,1.649059793814433,1.6535536082474227,1.5946525773195876,1.1999731958762887,-1142.5781
42.0,1.0,368.0,1.1150309278350516,2.3349092783505156,1.4598082474226806,1.8377865979381443,1.3967360824742268,1.7158,1.9494515463917526,1.7260958762886598,1.2821845360824744,-1141.6016
42.0,1.0,369.0,1.2870278350515465,2.5918597938144328,1.6244721649484537,1.8425690721649484,1.6292443298969073,1.7776391752577319,2.129586597938144,1.7612927835051544,1.3969628865979382,-1140.625
42.0,1.0,370.0,1.2879288659793813,2.5346731958762887,1.571156701030928,1.7616886597938146,1.6229443298969073,1.741196907216495,1.9966463917525774,1.7081567010309275,1.2737082474226802,-1139.6484
42.0,1.0,371.0,1.3094443298969074,2.5410670103092783,1.6086134020618559,1.7686567010309278,1.7497278350515464,1.8019082474226804,2.039057731958763,1.6890144329896906,1.475577319587629,-1138.6719
42.0,1.0,372.0,1.3950670103092782,2.717132989690722,1.759822680412371,1.8430082474226803,1.971358762886598,1.9545257731958763,2.3058350515463917,1.854496907216495,1.7914030927835052,-1137.6953
42.0,1.0,373.0,1.4368896907216495,2.760341237113402,1.7302876288659792,1.9309154639175257,1.8789298969072166,2.0556072164948453,2.1445103092783504,1.9721298969072165,1.6440103092783505,-1136.7188
42.0,1.0,374.0,1.3481123711340206,2.594840206185567,1.528663917525773,1.9179494845360825,1.5873711340206185,1.941320618556701,1.7659051546391753,1.868120618556701,1.258820618556701,-1135.7422
42.0,1.0,375.0,1.1531288659793815,2.3879123711340204,1.370358762886598,1.8808628865979382,1.3605701030927835,1.8440340206185566,1.4904742268041236,1.720379381443299,1.0443845360824742,-1134.7656
42.0,1.0,376.0,1.1704721649484535,2.2803164948453607,1.2318113402061854,1.8132092783505154,1.2353865979381444,1.7869072164948454,1.3727670103092784,1.6415845360824741,0.904259793814433,-1133.7891
42.0,1.0,377.0,1.2082185567010306,2.200240206185567,1.1855917525773196,1.8425886597938144,1.0554463917525774,1.7770814432989692,1.240758762886598,1.6546659793814433,0.7806350515463919,-1132.8125
42.0,1.0,378.0,1.308336082474227,2.284203092783505,1.1589216494845362,1.9260907216494847,1.1026175257731958,1.7189257731958765,1.3334154639175257,1.6116072164948452,0.8028958762886597,-1131.8359
42.0,1.0,379.0,1.3406711340206185,2.226622680412371,1.0256958762886599,1.8818680412371134,1.1376525773195876,1.5241134020618556,1.3053670103092785,1.3731845360824744,0.6571309278350516,-1130.8594
42.0,1.0,380.0,1.2761608247422682,2.1607000000000003,1.0883113402061855,1.7278041237113404,1.112938144329897,1.4670876288659793,1.3304886597938144,1.2974525773195877,0.7206123711340207,-1129.8828
42.0,1.0,381.0,1.6197701030927834,2.6267907216494844,1.555181443298969,2.1414690721649485,1.3197226804123712,1.933618556701031,1.5173824742268043,1.7316865979381444,0.9562216494845361,-1128.9063
42.0,1.0,382.0,1.9121814432989692,2.990178350515464,1.8765463917525773,2.5415257731958767,1.4184690721649484,2.3214288659793816,1.5908567010309278,2.0646824742268044,1.0057793814432991,-1127.9297
42.0,1.0,383.0,1.814360824742268,2.8801216494845363,1.7452979381443299,2.326956701030928,1.4171350515463916,2.125790721649485,1.551003092783505,1.9041474226804123,0.9923329896907216,-1126.9531
42.0,1.0,384.0,1.8140257731958762,2.7473742268041237,1.5869958762886598,2.0938474226804122,1.5294041237113403,1.917256701030928,1.6375402061855668,1.7677432989690722,1.1424896907216493,-1125.9766
42.0,1.0,385.0,1.6229268041237113,2.4428690721649486,1.3708505154639175,1.8238649484536085,1.4829917525773195,1.6862917525773196,1.6124927835051546,1.558005154639175,1.1257536082474227,-1125.0
42.0,1.0,386.0,1.228638144329897,2.1703103092783507,1.1715804123711342,1.5184546391752576,1.2704154639175258,1.3924731958762888,1.5625639175257733,1.3012443298969072,1.033858762886598,-1124.0234
42.0,1.0,387.0,1.089920618556701,2.1108711340206185,1.1232525773195876,1.4455061855670104,1.2913690721649482,1.3527680412371135,1.5507742268041238,1.3732999999999997,1.0978268041237114,-1123.0469
42.0,1.0,388.0,1.3138690721649486,2.2929082474226803,1.36809793814433,1.666960824742268,1.6303092783505155,1.676660824742268,1.7471072164948453,1.7147659793814434,1.3352917525773196,-1122.0703
42.0,1.0,389.0,1.5257154639175259,2.3515907216494845,1.575680412371134,1.8010391752577322,1.7344845360824743,1.784463917525773,1.884356701030928,1.8306278350515464,1.402796907216495,-1121.0938
42.0,1.0,390.0,1.4519463917525772,2.3329474226804123,1.6592154639175256,1.7884412371134022,1.6843659793814432,1.7424948453608247,2.004414432989691,1.764021649484536,1.48770206185567,-1120.1172
42.0,1.0,391.0,1.3360701030927833,2.3481453608247422,1.6511082474226804,1.7350247422680414,1.6021247422680414,1.662154639175258,2.099760824742268,1.685685567010309,1.5610391752577317,-1119.1406
42.0,1.0,392.0,1.0812000000000002,2.108619587628866,1.3542865979381444,1.5497175257731959,1.343715463917526,1.4710185567010308,1.925340206185567,1.5424896907216494,1.4380896907216494,-1118.1641
42.0,1.0,393.0,0.8765731958762887,1.9836618556701031,1.1749072164948455,1.4731164948453608,1.173257731958763,1.4137216494845362,1.6381927835051546,1.4839721649484536,1.2988030927835053,-1117.1875
42.0,1.0,394.0,1.1188041237113402,2.1509938144329896,1.303621649484536,1.6290391752577322,1.2863649484536082,1.512138144329897,1.6324061855670102,1.4939298969072163,1.2705731958762887,-1116.2109
42.0,1.0,395.0,1.2255556701030927,2.2501536082474227,1.3861546391752577,1.7025422680412372,1.3260597938144332,1.53439793814433,1.6983814432989692,1.6282618556701032,1.3758659793814434,-1115.2344
42.0,1.0,396.0,1.19020412371134,2.327915463917526,1.3491494845360825,1.8228865979381443,1.3158329896907217,1.5938443298969072,1.6067556701030927,1.7323422680412373,1.3707505154639177,-1114.2578
42.0,1.0,397.0,0.9958309278350516,2.222080412371134,1.226856701030928,1.8258886597938144,1.193338144329897,1.6729082474226804,1.5390144329896909,1.6485185567010308,1.2770896907216494,-1113.2813
42.0,1.0,398.0,0.9698721649484535,2.1427628865979385,1.1780494845360825,1.8682432989690723,1.1889020618556703,1.7549762886597937,1.6297051546391752,1.6035268041237114,1.2269938144329895,-1112.3047
42.0,1.0,399.0,1.1451257731958764,2.1855536082474227,1.3609865979381444,1.8612257731958763,1.3625515463917526,1.7772814432989688,1.8243896907216495,1.6278536082474224,1.348716494845361,-1111.3281
42.0,1.0,400.0,1.1267226804123711,2.2021845360824743,1.4113474226804124,1.7131618556701032,1.4698896907216494,1.6754154639175258,1.8698855670103092,1.5824711340206186,1.4360195876288662,-1110.3516
42.0,1.0,401.0,1.0120886597938146,2.0832134020618556,1.3340721649484537,1.596781443298969,1.3989969072164947,1.5514134020618557,1.8098742268041235,1.6055525773195878,1.3527443298969073,-1109.375
42.0,1.0,402.0,0.9255371134020619,1.9186556701030928,1.252278350515464,1.584681443298969,1.1930154639175257,1.5346969072164949,1.6849876288659795,1.642022680412371,1.2557731958762888,-1108.3984
42.0,1.0,403.0,0.9702958762886599,1.8977453608247423,1.2562237113402062,1.5757865979381442,1.1755670103092783,1.494044329896907,1.7223494845360825,1.5409690721649483,1.4035783505154638,-1107.4219
42.0,1.0,404.0,1.1194484536082476,1.9331536082474226,1.354558762886598,1.7578659793814433,1.3285886597938146,1.5764680412371133,1.8209515463917525,1.4976865979381444,1.5541103092783504,-1106.4453
42.0,1.0,405.0,1.1473123711340205,2.001340206185567,1.4493948453608247,1.897160824742268,1.3995773195876287,1.6226618556701031,1.8037855670103091,1.4775340206185565,1.5973,-1105.4688
42.0,1.0,406.0,1.0978659793814431,1.892415463917526,1.3856711340206185,1.8266546391752578,1.2960247422680413,1.5702298969072164,1.7716701030927835,1.4064804123711343,1.5849711340206185,-1104.4922
42.0,1.0,407.0,1.2272917525773197,1.9053938144329898,1.2857876288659793,1.7427515463917524,1.3488969072164951,1.472896907216495,1.7881134020618557,1.3758237113402063,1.5280082474226804,-1103.5156
42.0,1.0,408.0,1.3824505154639175,2.043121649484536,1.2579319587628865,1.7843402061855669,1.4882432989690721,1.530183505154639,1.8629690721649483,1.4983082474226805,1.4462525773195876,-1102.5391
42.0,1.0,409.0,1.5349463917525774,2.2557,1.4459268041237112,1.8766226804123711,1.5962567010309279,1.7393690721649484,1.9486092783505153,1.6797742268041236,1.4412958762886598,-1101.5625
42.0,1.0,410.0,1.7096082474226804,2.38929793814433,1.6228113402061857,1.9561319587628865,1.7326711340206185,1.7916113402061857,2.1290680412371135,1.6980443298969075,1.52470206185567,-1100.5859
42.0,1.0,411.0,1.9754649484536084,2.5977783505154637,1.7697680412371133,2.145976288659794,2.0302123711340205,1.9764608247422681,2.4134927835051547,1.7798855670103093,1.5819144329896906,-1099.6094
42.0,1.0,412.0,2.027937113402062,2.6451896907216494,1.6907309278350515,2.2617690721649484,2.0248536082474224,2.078887628865979,2.256443298969072,1.7456175257731956,1.473740206185567,-1098.6328
42.0,1.0,413.0,1.9920567010309278,2.5817865979381445,1.5562051546391755,2.2007886597938144,1.8205845360824742,1.8335711340206184,1.8628061855670104,1.5798701030927835,1.176537113402062,-1097.6563
42.0,1.0,414.0,1.80899793814433,2.424181443298969,1.4294546391752578,2.0377876288659795,1.8045927835051547,1.7516474226804122,1.8600103092783504,1.4970360824742268,1.0838938144329897,-1096.6797
42.0,1.0,415.0,1.7268226804123712,2.3948907216494844,1.3566690721649486,1.9176268041237114,1.8548608247422682,1.6397123711340207,1.9354711340206185,1.3340969072164948,1.1729371134020616,-1095.7031
42.0,1.0,416.0,1.7254896907216495,2.3197587628865977,1.1995113402061854,1.7880989690721651,1.7369938144329895,1.4505082474226803,1.7956907216494846,1.2225515463917527,1.1343649484536082,-1094.7266
42.0,1.0,417.0,1.9027886597938142,2.4513731958762888,1.370984536082474,1.9390329896907215,1.805477319587629,1.6049463917525773,1.8774773195876289,1.4466701030927835,1.2647546391752575,-1093.75
42.0,1.0,418.0,2.0078113402061857,2.66319587628866,1.5201845360824742,2.093401030927835,1.8895237113402064,1.7972886597938142,1.9534463917525773,1.6145144329896908,1.4219030927835052,-1092.7734
42.0,1.0,419.0,1.9710041237113403,2.6255649484536083,1.4358237113402061,2.214463917525773,1.8037309278350517,1.887062886597938,1.8710783505154638,1.6654134020618558,1.322077319587629,-1091.7969
42.0,1.0,420.0,1.9172175257731958,2.5207865979381445,1.2736030927835051,2.198418556701031,1.599237113402062,1.8183536082474228,1.629359793814433,1.6712340206185567,1.1175907216494845,-1090.8203
42.0,1.0,421.0,1.8037855670103091,2.4415948453608247,1.2090195876288659,1.937196907216495,1.46300412371134,1.6525072164948456,1.4812865979381442,1.5405463917525775,1.0374556701030928,-1089.8438
42.0,1.0,422.0,1.7649412371134023,2.441081443298969,1.2498030927835049,1.799443298969072,1.4830639175257732,1.5289030927835052,1.5749103092783505,1.44059381443299,1.091960824742268,-1088.8672
42.0,1.0,423.0,1.9583567010309277,2.566677319587629,1.4124422680412372,2.004844329896907,1.5176319587628866,1.6692268041237113,1.7318329896907216,1.595659793814433,1.3577195876288661,-1087.8906
42.0,1.0,424.0,2.138901030927835,2.8019969072164947,1.748316494845361,2.280583505154639,1.586357731958763,1.8983422680412372,2.0109979381443295,1.8469092783505152,1.72079587628866,-1086.9141
42.0,1.0,425.0,2.2676309278350515,2.970341237113402,1.9461876288659792,2.5094824742268043,1.619298969072165,2.1167329896907217,2.1189670103092784,2.022759793814433,1.8790845360824742,-1085.9375
42.0,1.0,426.0,2.2206340206185566,2.889017525773196,1.9397237113402062,2.4379938144329896,1.6587463917525773,2.1549505154639177,2.23820412371134,2.0593453608247425,2.0181556701030927,-1084.9609
42.0,1.0,427.0,2.4191845360824744,3.033590721649485,2.0608113402061856,2.4809113402061858,1.8172886597938143,2.2278701030927834,2.416123711340206,2.146562886597938,2.2319484536082475,-1083.9844
42.0,1.0,428.0,2.444441237113402,2.9729989690721648,1.9641113402061856,2.398160824742268,1.9488113402061855,2.102173195876289,2.413805154639175,1.951678350515464,2.1838103092783503,-1083.0078
42.0,1.0,429.0,2.2121505154639176,2.827434020618557,1.8536670103092783,2.3027536082474227,1.9708587628865977,1.9918319587628865,2.374534020618557,1.7891113402061856,2.0022587628865978,-1082.0313
42.0,1.0,430.0,2.0879515463917526,2.7993577319587626,1.7332474226804124,2.28459175257732,1.866681443298969,2.0434030927835054,2.3376938144329897,1.8623154639175257,1.7025360824742266,-1081.0547
42.0,1.0,431.0,2.224863917525773,2.883275257731959,1.6633082474226804,2.392279381443299,1.8120494845360824,2.149575257731959,2.2637670103092784,1.9301412371134021,1.4475216494845362,-1080.0781
42.0,1.0,432.0,2.3921,3.102681443298969,1.782340206185567,2.5542835051546393,1.9022113402061855,2.3111288659793816,2.2297391752577322,2.078763917525773,1.4022752577319588,-1079.1016
42.0,1.0,433.0,2.263976288659794,2.969686597938144,1.7429938144329897,2.4325298969072167,1.957805154639175,2.292640206185567,2.222819587628866,2.100257731958763,1.3362030927835054,-1078.125
42.0,1.0,434.0,2.125761855670103,2.8959371134020615,1.691419587628866,2.4774226804123707,1.8713360824742267,2.293276288659794,2.153982474226804,2.109019587628866,1.3654556701030927,-1077.1484
42.0,1.0,435.0,2.291858762886598,2.958472164948454,1.7206804123711341,2.5870773195876287,1.8029886597938145,2.28849793814433,2.0225752577319587,2.070247422680412,1.428019587628866,-1076.1719
42.0,1.0,436.0,2.3544804123711343,3.0306608247422684,1.8272515463917527,2.4878082474226804,1.9265845360824743,2.292932989690722,2.0784525773195877,2.0370711340206187,1.5374804123711339,-1075.1953
42.0,1.0,437.0,2.33670206185567,3.095782474226804,1.8318659793814434,2.375386597938144,2.0106505154639174,2.2231123711340204,2.154905154639175,1.9851814432989692,1.6672432989690722,-1074.2188
42.0,1.0,438.0,2.3578123711340204,3.0767525773195876,1.862141237113402,2.371367010309278,2.0333597938144328,2.2494,2.0960082474226804,2.030219587628866,1.721298969072165,-1073.2422
42.0,1.0,439.0,2.4291865979381444,3.1423164948453604,1.927940206185567,2.446061855670103,2.1039257731958765,2.261505154639175,2.151338144329897,2.1044948453608248,1.7370659793814431,-1072.2656
42.0,1.0,440.0,2.4143515463917526,3.209317525773196,1.9720690721649483,2.4513896907216495,2.129948453608247,2.2055536082474223,2.2512051546391754,2.1214701030927836,1.7574484536082473,-1071.2891
42.0,1.0,441.0,2.2628618556701032,3.108814432989691,1.8990505154639175,2.358141237113402,1.967814432989691,2.264798969072165,2.0522701030927837,2.108231958762887,1.6981670103092785,-1070.3125
42.0,1.0,442.0,2.262854639175258,3.0519865979381446,1.8807835051546393,2.42709587628866,1.8326103092783506,2.3772061855670104,2.0002309278350516,2.167885567010309,1.716861855670103,-1069.3359
42.0,1.0,443.0,2.531281443298969,3.3712247422680415,2.05961030927835,2.6546804123711336,1.979240206185567,2.622798969072165,2.218743298969072,2.3324680412371133,1.9081082474226805,-1068.3594
42.0,1.0,444.0,2.832777319587629,3.709179381443299,2.3253680412371134,2.9996989690721647,2.036080412371134,2.93959587628866,2.274103092783505,2.575135051546392,2.0151340206185564,-1067.3828
42.0,1.0,445.0,2.823230927835051,3.6565010309278354,2.335118556701031,3.027781443298969,1.9743731958762885,2.933952577319588,2.183905154639175,2.530701030927835,1.856922680412371,-1066.4063
42.0,1.0,446.0,2.6715020618556697,3.4221587628865984,2.170220618556701,2.9480731958762885,1.8307278350515463,2.83289381443299,2.02760618556701,2.3912855670103093,1.5874546391752578,-1065.4297
42.0,1.0,447.0,2.523878350515464,3.3189010309278353,2.122318556701031,2.887541237113402,1.8704659793814433,2.8056206185567008,2.0430546391752578,2.4394701030927837,1.461738144329897,-1064.4531
42.0,1.0,448.0,2.4372072164948455,3.2909886597938147,2.0851298969072163,2.7251515463917526,1.9922206185567013,2.673579381443299,2.121375257731959,2.3974783505154638,1.5347474226804123,-1063.4766
42.0,1.0,449.0,2.4816092783505153,3.3095463917525776,2.024470103092783,2.75580206185567,1.8381051546391753,2.69560412371134,1.9665876288659792,2.366075257731959,1.4345072164948454,-1062.5
42.0,1.0,450.0,2.4564556701030926,3.262630927835051,1.9881793814432989,2.8704927835051546,1.488982474226804,2.7696865979381444,1.6922412371134021,2.444241237113402,1.3605144329896908,-1061.5234
42.0,1.0,451.0,2.617123711340206,3.414457731958763,2.133154639175258,3.0409711340206185,1.5492515463917527,2.8438092783505153,1.849716494845361,2.5092463917525776,1.5929072164948455,-1060.5469
42.0,1.0,452.0,2.924239175257732,3.593616494845361,2.409015463917526,3.2052350515463917,1.8506917525773197,2.95000206185567,2.1173659793814434,2.6080917525773195,1.7895494845360824,-1059.5703
42.0,1.0,453.0,2.8933061855670106,3.469047422680412,2.348819587628866,3.066679381443299,1.9114103092783505,2.7656164948453608,2.1195237113402063,2.4624865979381445,1.6923474226804125,-1058.5938
42.0,1.0,454.0,2.776141237113402,3.3749525773195876,2.216818556701031,2.9599113402061854,1.8807731958762888,2.6161505154639175,2.1211484536082477,2.3553443298969072,1.6819103092783505,-1057.6172
42.0,1.0,455.0,2.6532051546391755,3.299196907216495,2.2497659793814435,2.8501680412371133,1.9078762886597938,2.5503298969072166,2.2114247422680413,2.2846278350515465,1.77849587628866,-1056.6406
42.0,1.0,456.0,2.4715742268041234,3.163056701030928,2.1768670103092784,2.540528865979381,1.9377505154639176,2.3858917525773196,2.2164577319587626,2.089123711340206,1.7922783505154638,-1055.6641
42.0,1.0,457.0,2.324239175257732,3.11831030927835,2.1011896907216494,2.3199278350515464,1.805637113402062,2.274374226804124,2.1437701030927836,2.0994123711340205,1.8572319587628865,-1054.6875
42.0,1.0,458.0,2.094418556701031,3.004156701030928,2.0657938144329897,2.220935051546392,1.6273783505154638,2.2692711340206184,1.969141237113402,2.1556340206185567,1.8677670103092783,-1053.7109
42.0,1.0,459.0,2.065543298969072,3.0427835051546395,2.1346680412371133,2.3149752577319584,1.6686288659793815,2.468536082474227,1.950996907216495,2.3304350515463916,1.8161639175257733,-1052.7344
42.0,1.0,460.0,2.049460824742268,2.958311340206186,2.045058762886598,2.28239587628866,1.654019587628866,2.4735422680412373,1.878782474226804,2.3203731958762885,1.7360474226804123,-1051.7578
42.0,1.0,461.0,1.7555494845360824,2.7211298969072164,1.9075989690721649,2.0175,1.4941360824742267,2.244921649484536,1.788139175257732,2.1601690721649485,1.678620618556701,-1050.7813
42.0,1.0,462.0,1.7048051546391751,2.645579381443299,1.9172989690721651,1.9541268041237112,1.569680412371134,2.123977319587629,1.8742422680412372,2.0987443298969075,1.7683711340206183,-1049.8047
42.0,1.0,463.0,1.6614999999999998,2.5474268041237114,1.8033896907216493,2.0387164948453607,1.412082474226804,2.194782474226804,1.752140206185567,2.225016494845361,1.6160896907216495,-1048.8281
42.0,1.0,464.0,1.5109474226804125,2.4520567010309278,1.7792876288659794,2.061541237113402,1.2502917525773196,2.2530268041237114,1.6317164948453609,2.270624742268041,1.3903536082474228,-1047.8516
42.0,1.0,465.0,1.428081443298969,2.3994494845360825,1.713660824742268,2.002487628865979,1.3923092783505155,2.1356515463917525,1.7593185567010308,2.1684731958762886,1.4819278350515466,-1046.875
42.0,1.0,466.0,1.4377680412371132,2.378779381443299,1.6028298969072166,1.947494845360825,1.4525896907216496,2.098118556701031,1.7963515463917528,2.1207701030927835,1.514303092783505,-1045.8984
42.0,1.0,467.0,1.5507123711340205,2.373307216494845,1.5958701030927833,2.0532670103092783,1.3975113402061856,2.265857731958763,1.7185618556701032,2.193678350515464,1.4576567010309278,-1044.9219
42.0,1.0,468.0,1.6098268041237114,2.409203092783505,1.641244329896907,2.171020618556701,1.3167515463917527,2.449720618556701,1.646136082474227,2.3473855670103094,1.467041237113402,-1043.9453
42.0,1.0,469.0,1.8037876288659793,2.6901350515463918,1.9101371134020617,2.4637577319587627,1.2879948453608248,2.7742505154639177,1.645817525773196,2.59209587628866,1.5374917525773195,-1042.9688
42.0,1.0,470.0,1.8064288659793815,2.593779381443299,1.8697876288659796,2.4686731958762884,1.2051567010309279,2.7798525773195872,1.6011319587628865,2.507184536082474,1.4918649484536084,-1041.9922
42.0,1.0,471.0,1.7261690721649485,2.4542855670103094,1.8288690721649483,2.3980958762886595,1.1636907216494847,2.768736082474227,1.5922515463917526,2.544484536082474,1.4586793814432988,-1041.0156
42.0,1.0,472.0,1.7144680412371136,2.3825659793814435,1.874419587628866,2.346737113402062,1.151038144329897,2.6446917525773195,1.5666268041237112,2.591114432989691,1.5209134020618558,-1040.0391
42.0,1.0,473.0,1.790042268041237,2.5034072164948453,1.9784587628865982,2.395018556701031,1.3080226804123711,2.615274226804124,1.7300113402061856,2.62709381443299,1.7426567010309277,-1039.0625
42.0,1.0,474.0,1.8254690721649485,2.4813804123711343,1.9387876288659793,2.334961855670103,1.4311618556701031,2.470298969072165,1.9710278350515462,2.466960824742268,1.895140206185567,-1038.0859
42.0,1.0,475.0,1.8793041237113401,2.5380876288659793,1.9366515463917526,2.2900350515463916,1.4839773195876287,2.363292783505155,2.176598969072165,2.317125773195876,2.0616,-1037.1094
42.0,1.0,476.0,2.1800257731958763,2.898961855670103,2.215238144329897,2.473439175257732,1.7568051546391752,2.6405577319587628,2.426679381443299,2.5028319587628864,2.2128742268041237,-1036.1328
42.0,1.0,477.0,2.2727484536082474,2.9406329896907217,2.245750515463918,2.5429865979381443,1.7493371134020619,2.695471134020618,2.34010412371134,2.47469793814433,2.0426298969072163,-1035.1563
42.0,1.0,478.0,2.337138144329897,2.939029896907216,2.282787628865979,2.69989587628866,1.64629381443299,2.775480412371134,2.211756701030928,2.574759793814433,1.9194690721649486,-1034.1797
42.0,1.0,479.0,2.572477319587629,3.180609278350515,2.450319587628866,2.8790474226804124,1.7586670103092783,2.898441237113402,2.363137113402062,2.721778350515464,2.0432298969072162,-1033.2031
42.0,1.0,480.0,2.502855670103093,3.2412237113402065,2.405642268041237,2.8845082474226804,1.7053154639175259,2.818515463917526,2.3463773195876287,2.647468041237113,2.073742268041237,-1032.2266
42.0,1.0,481.0,2.0965432989690727,2.8621371134020617,2.111507216494845,2.6031835051546395,1.4904927835051547,2.5473711340206187,2.0758659793814433,2.439575257731959,1.9727474226804123,-1031.25
42.0,1.0,482.0,1.7991525773195878,2.4667484536082473,1.924519587628866,2.340376288659794,1.3003247422680413,2.3319041237113405,1.8147113402061854,2.2695051546391753,1.7864597938144329,-1030.2734
42.0,1.0,483.0,1.800939175257732,2.432075257731959,1.8676422680412372,2.3222288659793815,1.2490762886597937,2.2910948453608246,1.7482907216494843,2.2492278350515464,1.6919103092783505,-1029.2969
42.0,1.0,484.0,1.8445845360824742,2.5628752577319585,1.8210443298969072,2.4215484536082474,1.3143144329896908,2.3262835051546396,1.8139041237113402,2.315321649484536,1.6460000000000001,-1028.3203
42.0,1.0,485.0,1.9302907216494847,2.68179587628866,1.8222,2.5265484536082474,1.3280835051546391,2.432144329896907,1.797601030927835,2.388725773195876,1.5549164948453609,-1027.3438
42.0,1.0,486.0,1.8749144329896907,2.6128061855670106,1.7988711340206185,2.4815381443298965,1.2846515463917525,2.4187113402061855,1.7674639175257731,2.2764505154639174,1.422501030927835,-1026.3672
42.0,1.0,487.0,1.6568896907216495,2.407780412371134,1.5925536082474228,2.242819587628866,1.1320701030927836,2.2387391752577317,1.6276536082474227,2.0256329896907217,1.1531237113402062,-1025.3906
42.0,1.0,488.0,1.6267814432989693,2.2235659793814433,1.4493020618556702,2.0355319587628866,1.1070360824742267,2.101845360824742,1.6358082474226805,1.9801041237113404,1.0999082474226805,-1024.4141
42.0,1.0,489.0,1.643359793814433,2.171965979381443,1.407767010309278,2.0881082474226806,1.2512247422680414,2.0805051546391753,1.8238123711340206,2.071321649484536,1.2985907216494845,-1023.4375
42.0,1.0,490.0,1.3793762886597938,1.897845360824742,1.0763278350515464,2.016798969072165,1.0197010309278352,1.939562886597938,1.522176288659794,1.958784536082474,1.0776938144329897,-1022.4609
42.0,1.0,491.0,1.2478979381443298,1.7862092783505155,0.9661649484536082,1.8862515463917524,0.9369329896907217,1.8664639175257731,1.365276288659794,1.8426721649484537,0.9306690721649484,-1021.4844
42.0,1.0,492.0,1.4773896907216493,2.014360824742268,1.1655000000000002,1.9496134020618554,1.259944329896907,1.9065876288659795,1.6163896907216497,1.8765587628865978,1.0898515463917526,-1020.5078
42.0,1.0,493.0,1.6791072164948453,2.22990412371134,1.2645577319587629,2.017819587628866,1.4997670103092786,1.8752793814432989,1.6820164948453606,1.8187453608247424,1.036973195876289,-1019.5313
42.0,1.0,494.0,1.712921649484536,2.2165958762886597,1.2653494845360826,1.8988752577319588,1.6198247422680412,1.8847144329896905,1.7210546391752577,1.7190742268041237,1.0040824742268042,-1018.5547
42.0,1.0,495.0,1.5602608247422678,2.054979381443299,1.1785701030927835,1.642383505154639,1.5313,1.8145505154639177,1.7514463917525773,1.6163164948453608,1.002159793814433,-1017.5781
42.0,1.0,496.0,1.2710340206185566,1.7516546391752579,0.8840876288659792,1.485157731958763,1.0313567010309277,1.6107484536082475,1.4600567010309278,1.4421484536082474,0.7635577319587629,-1016.6016
42.0,1.0,497.0,1.1383144329896908,1.6485092783505155,0.7629577319587629,1.4924556701030929,0.741321649484536,1.4958278350515464,1.2215453608247422,1.2998494845360824,0.593598969072165,-1015.625
42.0,1.0,498.0,1.1206907216494848,1.6721381443298968,0.8290298969072164,1.4857309278350517,0.8575845360824742,1.4604752577319589,1.2404340206185567,1.2343298969072163,0.7084690721649485,-1014.6484
42.0,1.0,499.0,1.1195762886597938,1.6399123711340207,0.752479381443299,1.53629793814433,0.8591804123711341,1.5081762886597938,1.1180134020618555,1.250341237113402,0.7010309278350515,-1013.6719
42.0,1.0,500.0,1.426857731958763,1.8270319587628867,0.8628876288659795,1.7879762886597936,1.0577,1.6672030927835053,1.2835639175257731,1.4205309278350513,0.8993515463917525,-1012.6953
42.0,1.0,501.0,1.5143432989690722,2.0028721649484535,0.944558762886598,1.8712896907216494,1.179538144329897,1.780758762886598,1.4004134020618557,1.6137041237113403,0.9934309278350515,-1011.7188
42.0,1.0,502.0,1.5210948453608246,2.152683505154639,1.0469257731958763,1.8623154639175257,1.2882175257731958,1.809115463917526,1.5724618556701029,1.684615463917526,1.0132,-1010.7422
42.0,1.0,503.0,1.525,2.205015463917526,1.2823670103092784,1.906665979381443,1.4433845360824742,1.9015577319587629,1.8194938144329895,1.7880113402061855,1.2494360824742268,-1009.7656
42.0,1.0,504.0,1.3928979381443298,1.9692515463917526,1.202561855670103,1.8423072164948453,1.449578350515464,1.8911237113402062,1.9024319587628866,1.7638762886597938,1.3406051546391753,-1008.7891
42.0,1.0,505.0,1.4449175257731959,1.9156113402061856,1.1012298969072165,1.7788907216494847,1.420640206185567,1.8055103092783504,1.866780412371134,1.664682474226804,1.3995917525773196,-1007.8125
42.0,1.0,506.0,1.731241237113402,2.177838144329897,1.2197670103092784,1.9061154639175255,1.5445494845360823,1.7939360824742268,1.8861463917525774,1.5738690721649484,1.4795113402061855,-1006.8359
42.0,1.0,507.0,1.774201030927835,2.2573917525773197,1.1913072164948453,1.9924938144329896,1.464098969072165,1.8217103092783506,1.7658525773195877,1.4583680412371132,1.4251587628865978,-1005.8594
42.0,1.0,508.0,1.847274226804124,2.196721649484536,1.0674752577319588,2.0472298969072167,1.206478350515464,1.89019793814433,1.3943546391752577,1.411255670103093,1.0270711340206187,-1004.8828
42.0,1.0,509.0,1.8971144329896905,2.3311061855670103,1.1612546391752578,2.1311546391752576,1.2232515463917526,1.9571195876288658,1.3778969072164948,1.4909484536082476,1.0143484536082474,-1003.9063
42.0,1.0,510.0,1.825618556701031,2.4071082474226806,1.3818484536082474,2.255521649484536,1.366041237113402,2.1066288659793817,1.6651886597938146,1.7147907216494844,1.270558762886598,-1002.9297
42.0,1.0,511.0,2.0305938144329896,2.5770226804123713,1.6457659793814432,2.381123711340206,1.6367309278350515,2.1852134020618554,2.043760824742268,1.8475814432989692,1.6106154639175259,-1001.9531
42.0,1.0,512.0,2.0232319587628864,2.6068835051546393,1.6565979381443299,2.319738144329897,1.6751072164948453,2.1465927835051546,2.069858762886598,1.8314494845360825,1.6471113402061857,-1000.9766
42.0,1.0,513.0,1.7858556701030928,2.430824742268041,1.5327886597938143,2.2197948453608247,1.7024927835051544,2.086937113402062,2.087644329896907,1.7647422680412372,1.628623711340206,-1000.0
42.0,1.0,514.0,1.6457515463917527,2.476518556701031,1.525625773195876,2.155552577319588,1.8071670103092783,1.9959309278350514,2.1541030927835054,1.7263793814432988,1.6698639175257732,-999.0234
42.0,1.0,515.0,1.815777319587629,2.6212298969072165,1.6139298969072164,2.254470103092783,1.715720618556701,2.0455216494845363,2.0778896907216495,1.845876288659794,1.6292020618556702,-998.0469
42.0,1.0,516.0,1.8971680412371135,2.6138680412371134,1.6226329896907217,2.3660536082474226,1.4791814432989692,2.159308247422681,1.8726412371134022,1.916159793814433,1.5537556701030926,-997.0703
42.0,1.0,517.0,1.5740371134020619,2.4356876288659794,1.4441577319587626,2.1530907216494843,1.3480453608247422,1.971462886597938,1.7421164948453607,1.7307680412371134,1.4690835051546394,-996.0938
42.0,1.0,518.0,1.5312783505154641,2.4026659793814433,1.395594845360825,2.0520154639175257,1.4881876288659792,1.9181556701030928,1.87129793814433,1.6652360824742267,1.5265505154639176,-995.1172
42.0,1.0,519.0,1.6331783505154638,2.3074041237113403,1.3007154639175258,2.0539659793814433,1.5265237113402061,1.8891649484536082,1.8522773195876288,1.5292855670103092,1.499418556701031,-994.1406
42.0,1.0,520.0,1.3973536082474225,2.0981072164948453,1.1360082474226803,1.8672618556701028,1.4582000000000002,1.8271896907216496,1.7535113402061855,1.4778494845360826,1.4304876288659791,-993.1641
42.0,1.0,521.0,1.2126670103092783,1.9102938144329895,1.1026896907216497,1.6020989690721648,1.5428474226804125,1.659617525773196,1.8959082474226803,1.4823020618556701,1.575658762886598,-992.1875
42.0,1.0,522.0,1.4264226804123712,2.188940206185567,1.4008484536082475,1.7094484536082477,1.799421649484536,1.8030484536082474,2.250444329896907,1.6399731958762884,1.9586226804123712,-991.2109
42.0,1.0,523.0,1.4776298969072166,2.4793701030927835,1.596942268041237,1.8329855670103092,1.8333649484536083,1.93159793814433,2.407527835051546,1.8177154639175257,2.2053494845360824,-990.2344
42.0,1.0,524.0,1.5169731958762886,2.5805494845360823,1.7576206185567012,1.90430206185567,1.989039175257732,1.969343298969072,2.501337113402062,1.9150268041237113,2.342024742268041,-989.2578
42.0,1.0,525.0,1.5289061855670103,2.516156701030928,1.7907515463917525,1.885158762886598,2.0013030927835054,1.9907474226804123,2.383542268041237,1.8987494845360826,2.2395288659793815,-988.2813
42.0,1.0,526.0,1.5090257731958765,2.51080412371134,1.8329113402061856,1.8556948453608246,1.9303855670103092,2.011527835051546,2.2467907216494845,1.8978752577319586,2.060323711340206,-987.3047
42.0,1.0,527.0,1.4915206185567011,2.670410309278351,1.9480350515463916,1.8329030927835053,1.9982278350515466,2.115487628865979,2.395057731958763,2.0010628865979383,2.2463247422680412,-986.3281
42.0,1.0,528.0,1.6448680412371135,2.799316494845361,2.1376288659793814,1.8402927835051546,2.091577319587629,2.1225072164948453,2.6203546391752575,2.08840412371134,2.482484536082474,-985.3516
42.0,1.0,529.0,1.9611845360824742,3.0191371134020617,2.4037278350515465,2.0556742268041237,2.2247360824742266,2.28209175257732,2.7053927835051543,2.3013876288659794,2.6555855670103092,-984.375
42.0,1.0,530.0,2.068331958762887,3.1972195876288656,2.5474103092783507,2.318140206185567,2.38000206185567,2.521874226804124,2.9331350515463916,2.4962123711340207,2.880132989690722,-983.3984
42.0,1.0,531.0,2.2577257731958764,3.4451773195876285,2.7786123711340207,2.535314432989691,2.601880412371134,2.7208587628865977,3.246960824742268,2.63860824742268,3.076558762886598,-982.4219
42.0,1.0,532.0,2.1066731958762888,3.2972350515463917,2.595710309278351,2.412241237113402,2.453976288659794,2.6189659793814433,3.0959134020618557,2.526094845360825,2.8923711340206184,-981.4453
42.0,1.0,533.0,1.8425494845360826,3.057277319587629,2.420242268041237,2.198787628865979,2.2593474226804124,2.501905154639175,2.892957731958763,2.4920463917525773,2.6917567010309282,-980.4688
42.0,1.0,534.0,1.676976288659794,2.8522247422680413,2.288415463917526,2.0330824742268043,2.114552577319588,2.415205154639175,2.7080597938144333,2.41120412371134,2.4677164948453605,-979.4922
42.0,1.0,535.0,1.4574484536082475,2.5533948453608244,2.0390474226804125,1.9129484536082475,1.8094597938144332,2.269103092783505,2.516157731958763,2.3395113402061853,2.277521649484536,-978.5156
42.0,1.0,536.0,1.3982463917525771,2.4437577319587627,1.9312989690721647,1.9336536082474227,1.586401030927835,2.217962886597938,2.366174226804124,2.31619587628866,2.265776288659794,-977.5391
42.0,1.0,537.0,1.4772360824742268,2.6743628865979385,2.140442268041237,2.0706082474226806,1.7557721649484537,2.3665639175257733,2.514152577319588,2.3895814432989693,2.546027835051546,-976.5625
42.0,1.0,538.0,1.3705298969072164,2.7053484536082473,2.300021649484536,2.0269556701030926,1.799019587628866,2.4111051546391753,2.6713989690721647,2.4450381443298967,2.6680670103092785,-975.5859
42.0,1.0,539.0,1.505842268041237,2.8007948453608247,2.441267010309278,2.0389422680412372,1.903042268041237,2.481743298969072,2.923537113402062,2.525198969072165,2.875811340206186,-974.6094
42.0,1.0,540.0,1.4399432989690721,2.649757731958763,2.3209113402061856,1.9587103092783504,1.9039721649484533,2.4151505154639175,2.8405525773195874,2.5108453608247423,2.8676701030927836,-973.6328
42.0,1.0,541.0,1.3132989690721648,2.5433309278350515,2.0608999999999997,1.8797907216494845,1.6992690721649484,2.287692783505155,2.5180061855670104,2.437920618556701,2.5214907216494846,-972.6563
42.0,1.0,542.0,1.1798360824742269,2.427057731958763,1.8256443298969072,1.7509134020618555,1.5396649484536082,2.0180288659793817,2.252683505154639,2.136043298969072,2.176065979381443,-971.6797
42.0,1.0,543.0,0.9897061855670104,2.207412371134021,1.5241309278350514,1.5464092783505154,1.4005690721649484,1.8065886597938141,2.0884680412371135,1.8927948453608248,1.874156701030928,-970.7031
42.0,1.0,544.0,1.0491278350515465,2.137232989690722,1.2936226804123712,1.585741237113402,1.249038144329897,1.8986876288659793,1.8767226804123711,1.8910721649484536,1.6222896907216495,-969.7266
42.0,1.0,545.0,1.0644453608247424,2.1027680412371135,1.2680762886597938,1.564120618556701,1.123501030927835,1.9550742268041237,1.7684329896907218,1.91430206185567,1.5756164948453608,-968.75
42.0,1.0,546.0,1.0447773195876289,2.085343298969072,1.403022680412371,1.5766670103092784,1.089617525773196,2.021636082474227,1.8422319587628864,1.9606350515463917,1.6080670103092785,-967.7734
42.0,1.0,547.0,1.0230350515463917,2.05080206185567,1.3865103092783506,1.5869876288659794,1.0918319587628866,2.0005680412371136,1.949642268041237,1.9735082474226804,1.5526494845360825,-966.7969
42.0,1.0,548.0,0.8750288659793816,1.9201670103092785,1.1619752577319589,1.5228762886597937,0.9077628865979381,1.9111659793814435,1.7407113402061856,1.9287484536082475,1.433979381443299,-965.8203
42.0,1.0,549.0,0.7413061855670103,1.6611525773195877,0.9205505154639175,1.4169144329896906,0.7141134020618556,1.750159793814433,1.438040206185567,1.7245515463917525,1.2155020618556702,-964.8438
42.0,1.0,550.0,0.5467907216494845,1.5196896907216495,0.7675010309278352,1.3073072164948454,0.6163103092783505,1.600918556701031,1.2248536082474226,1.5405742268041236,0.9684989690721649,-963.8672
42.0,1.0,551.0,0.5959917525773197,1.6264453608247422,0.8513319587628867,1.4577876288659792,0.6282195876288659,1.6726103092783506,1.3041525773195877,1.6308278350515464,1.0056350515463917,-962.8906
42.0,1.0,552.0,0.9375701030927834,1.8404278350515464,1.0600577319587627,1.7605113402061856,0.7416092783505154,1.8520350515463917,1.400096907216495,1.8054525773195875,1.0784113402061855,-961.9141
42.0,1.0,553.0,1.218721649484536,2.033040206185567,1.2723432989690722,2.0700865979381446,0.8265597938144331,2.1181721649484535,1.3691360824742267,1.9961855670103092,1.034760824742268,-960.9375
42.0,1.0,554.0,1.4963896907216494,2.2932608247422683,1.4396340206185567,2.3852340206185567,0.8822948453608247,2.4360113402061856,1.3533113402061856,2.165958762886598,1.04329587628866,-959.9609
42.0,1.0,555.0,1.506601030927835,2.308340206185567,1.3767278350515466,2.350137113402062,0.8269927835051546,2.466976288659794,1.3425144329896905,2.2302865979381443,1.1042484536082473,-958.9844
42.0,1.0,556.0,1.479663917525773,2.2462247422680415,1.162220618556701,2.2778309278350517,0.835840206185567,2.3742814432989694,1.222698969072165,2.1392927835051547,1.0771371134020618,-958.0078
42.0,1.0,557.0,1.5138731958762885,2.360642268041237,1.0957927835051546,2.300682474226804,0.9681,2.316156701030928,1.2755443298969071,1.9794309278350515,1.0014690721649484,-957.0313
42.0,1.0,558.0,1.3617639175257734,2.2964051546391753,1.0711515463917527,2.189879381443299,0.9802762886597938,2.143783505154639,1.4109453608247424,1.8832659793814435,1.056098969072165,-956.0547
42.0,1.0,559.0,1.142898969072165,1.9702103092783505,0.8431639175257732,2.073618556701031,0.7103061855670103,2.031083505154639,1.2152164948453608,1.8564041237113402,0.8909175257731958,-955.0781
42.0,1.0,560.0,1.0720948453608248,1.7600422680412373,0.6910597938144329,2.0852865979381443,0.4878979381443299,2.0509,1.0616360824742266,1.8632,0.7154340206185568,-954.1016
42.0,1.0,561.0,1.1380515463917527,1.841005154639175,0.8314154639175257,2.1488793814432987,0.5506804123711342,2.146859793814433,1.1357309278350516,1.9720422680412373,0.7832319587628866,-953.125
42.0,1.0,562.0,1.1379556701030928,1.9372670103092782,1.032080412371134,2.187179381443299,0.6541226804123711,2.17679793814433,1.277257731958763,2.0676938144329897,0.8477927835051546,-952.1484
42.0,1.0,563.0,1.0125649484536083,1.856438144329897,0.9776505154639177,2.0566061855670106,0.629740206185567,2.1191051546391755,1.2678030927835051,2.121452577319588,0.8315525773195876,-951.1719
42.0,1.0,564.0,1.1984515463917524,2.0059350515463916,1.0092938144329897,2.1223072164948453,0.7664030927835052,2.2665587628865977,1.3141855670103093,2.198932989690722,0.8234690721649484,-950.1953
42.0,1.0,565.0,1.2935329896907217,2.1625536082474226,1.1055958762886597,2.3936989690721653,0.8105474226804124,2.437039175257732,1.3428865979381446,2.289992783505155,0.7735010309278351,-949.2188
42.0,1.0,566.0,1.3579680412371136,2.2819701030927835,1.2071567010309279,2.5593690721649485,0.8754298969072165,2.4891670103092784,1.4476484536082475,2.3931340206185565,0.7955917525773195,-948.2422
42.0,1.0,567.0,1.3819556701030928,2.237139175257732,1.2075546391752578,2.655059793814433,0.7797484536082475,2.6625298969072166,1.3573474226804123,2.4841845360824744,0.77679793814433,-947.2656
42.0,1.0,568.0,1.0975463917525774,1.9834731958762886,1.0264711340206185,2.558954639175258,0.5174432989690722,2.6529443298969073,1.0983020618556703,2.4108051546391756,0.5512,-946.2891
42.0,1.0,569.0,1.1752690721649486,1.969277319587629,0.8930567010309277,2.557518556701031,0.38126391752577327,2.5828144329896907,0.8582175257731959,2.254234020618557,0.249578350515464,-945.3125
42.0,1.0,570.0,1.4030958762886598,2.1195350515463915,1.005459793814433,2.6000536082474226,0.5222938144329896,2.531126804123711,0.9753360824742268,2.253878350515464,0.2718628865979381,-944.3359
42.0,1.0,571.0,1.4134309278350516,2.091377319587629,1.0640969072164947,2.56970412371134,0.5965845360824741,2.4568494845360824,1.1301835051546392,2.2482298969072163,0.4433525773195876,-943.3594
42.0,1.0,572.0,1.374537113402062,2.0009278350515465,1.0186371134020618,2.478592783505155,0.5632216494845361,2.3759494845360827,1.1284371134020619,2.132239175257732,0.5100340206185566,-942.3828
42.0,1.0,573.0,1.3487391752577318,1.999181443298969,0.9937494845360825,2.279096907216495,0.5967463917525774,2.1969618556701036,1.0862175257731959,2.0036340206185566,0.5522453608247422,-941.4063
42.0,1.0,574.0,1.5731824742268041,2.1561505154639176,1.10980206185567,2.3117,0.8627618556701032,2.214425773195876,1.175380412371134,2.091360824742268,0.6221154639175257,-940.4297
42.0,1.0,575.0,1.7113268041237113,2.206587628865979,1.1114103092783503,2.3460422680412374,1.0490113402061856,2.206744329896907,1.207074226804124,2.126541237113402,0.6971216494845361,-939.4531
42.0,1.0,576.0,1.61140206185567,2.176421649484536,1.0440371134020618,2.2924494845360828,1.0534814432989692,2.1575453608247424,1.2891855670103094,2.0574134020618557,0.8799701030927836,-938.4766
42.0,1.0,577.0,1.5569742268041238,2.1012350515463916,1.0661041237113402,2.119365979381443,1.039098969072165,2.049521649484536,1.290283505154639,2.012217525773196,0.8323618556701031,-937.5
42.0,1.0,578.0,1.6189134020618559,2.1228865979381446,1.0964340206185568,2.150720618556701,0.9725206185567009,2.1049958762886596,1.1262,2.1667876288659795,0.6725340206185568,-936.5234
42.0,1.0,579.0,1.6246113402061855,2.12030824742268,1.0590556701030927,2.3021917525773197,0.7640556701030929,2.2512670103092782,0.8975917525773196,2.303238144329897,0.49409278350515473,-935.5469
42.0,1.0,580.0,1.7011164948453608,2.2659175257731956,1.1881958762886597,2.4138515463917525,0.7107432989690722,2.373132989690722,0.8829453608247422,2.3804144329896904,0.422460824742268,-934.5703
42.0,1.0,581.0,1.8154752577319588,2.3541999999999996,1.1999814432989693,2.397661855670103,0.90059793814433,2.31839793814433,1.0611938144329898,2.30230412371134,0.4928505154639175,-933.5938
42.0,1.0,582.0,1.867342268041237,2.4992453608247422,1.2869989690721648,2.3321216494845363,1.0469134020618558,2.2688979381443297,1.1317474226804123,2.2003113402061856,0.6083907216494846,-932.6172
42.0,1.0,583.0,1.981820618556701,2.6797659793814432,1.4299515463917525,2.485643298969072,1.0749,2.381183505154639,1.0527649484536084,2.2284721649484536,0.643219587628866,-931.6406
42.0,1.0,584.0,1.997838144329897,2.6162587628865976,1.284419587628866,2.5032123711340204,0.9411670103092783,2.347358762886598,0.9324680412371134,2.14950206185567,0.5360628865979381,-930.6641
42.0,1.0,585.0,1.811459793814433,2.4596938144329896,1.2437938144329896,2.4585567010309277,0.8666144329896909,2.3547711340206186,0.932877319587629,2.1262237113402063,0.5865917525773198,-929.6875
42.0,1.0,586.0,1.6624886597938144,2.311517525773196,1.2609896907216496,2.3546927835051545,0.8386670103092784,2.3294783505154637,0.9077505154639175,2.1260762886597937,0.6921525773195877,-928.7109
42.0,1.0,587.0,1.5856917525773195,2.2005659793814436,1.2482484536082472,2.14299381443299,0.7953463917525774,2.1514742268041234,1.0587144329896907,2.078857731958763,0.8097670103092783,-927.7344
42.0,1.0,588.0,1.55170206185567,2.3008195876288657,1.387653608247423,2.1390515463917525,0.8549752577319587,2.1595948453608247,1.2589298969072165,2.0870979381443298,1.0155237113402062,-926.7578
42.0,1.0,589.0,1.658722680412371,2.587661855670103,1.641277319587629,2.246335051546392,1.0049938144329897,2.288423711340206,1.354281443298969,2.1811268041237115,1.255143298969072,-925.7813
42.0,1.0,590.0,1.5880144329896906,2.6421711340206184,1.6230917525773196,2.184538144329897,1.0474257731958763,2.2792505154639175,1.3900288659793814,2.179080412371134,1.3289680412371134,-924.8047
42.0,1.0,591.0,1.4546907216494844,2.5350309278350514,1.4915938144329899,2.054276288659794,0.9702072164948452,2.1420680412371134,1.3415484536082474,2.097098969072165,1.2880402061855671,-923.8281
42.0,1.0,592.0,1.5904587628865978,2.5345659793814432,1.576494845360825,1.9144453608247423,1.159424742268041,2.10760412371134,1.6098329896907215,2.086357731958763,1.5598824742268043,-922.8516
42.0,1.0,593.0,1.802185567010309,2.5824639175257733,1.695817525773196,1.7808463917525772,1.522381443298969,1.9837670103092784,1.9387731958762888,2.0520670103092784,1.7611247422680412,-921.875
42.0,1.0,594.0,1.8572494845360825,2.593013402061856,1.7484886597938143,1.8099030927835051,1.6946474226804122,1.961698969072165,2.0493680412371136,2.120005154639175,1.763976288659794,-920.8984
42.0,1.0,595.0,1.6158360824742268,2.462319587628866,1.7255556701030927,1.7197845360824742,1.5677268041237113,2.040901030927835,2.090440206185567,2.2369690721649484,1.8190773195876289,-919.9219
42.0,1.0,596.0,1.3932773195876287,2.264042268041237,1.6020154639175257,1.700521649484536,1.1812577319587627,2.0524515463917528,1.8731649484536084,2.331361855670103,1.72890206185567,-918.9453
42.0,1.0,597.0,1.3326185567010311,2.114757731958763,1.5213742268041237,1.5920010309278352,1.1179659793814432,1.8828402061855667,1.8082958762886596,2.178945360824742,1.704543298969072,-917.9688
42.0,1.0,598.0,1.1839917525773196,1.9858546391752578,1.4223721649484535,1.5358659793814435,1.083061855670103,1.7887185567010309,1.781701030927835,2.0368515463917527,1.6725938144329897,-916.9922
42.0,1.0,599.0,1.0797123711340206,2.0072742268041237,1.4764051546391752,1.6121298969072164,1.1064876288659793,1.8222958762886599,1.8154927835051546,2.005642268041237,1.6544556701030928,-916.0156
42.0,1.0,600.0,1.2237597938144331,2.330760824742268,1.7397855670103093,1.6191082474226803,1.3466608247422682,1.9439350515463918,2.0068154639175257,2.0808422680412373,1.8049082474226803,-915.0391
42.0,1.0,601.0,1.2874453608247423,2.29110824742268,1.773219587628866,1.5399804123711338,1.4647061855670105,1.8808371134020616,2.0947814432989693,2.0313432989690723,1.8962350515463917,-914.0625
42.0,1.0,602.0,1.4638690721649483,2.2245103092783505,1.6937329896907216,1.5128907216494847,1.5033360824742268,1.8166742268041236,2.1878649484536083,1.9952917525773195,1.9239340206185567,-913.0859
42.0,1.0,603.0,1.3743752577319588,2.118129896907216,1.5889402061855669,1.5100948453608247,1.3783309278350513,1.7713288659793813,2.2352123711340206,1.9654536082474228,1.899567010309278,-912.1094
42.0,1.0,604.0,1.3107020618556702,2.057026804123711,1.5066597938144328,1.666158762886598,1.3145319587628868,1.8454824742268041,2.2095969072164947,1.9792989690721652,1.82409381443299,-911.1328
42.0,1.0,605.0,1.309981443298969,2.007962886597938,1.4619154639175258,1.6541072164948454,1.4047536082474226,1.802621649484536,2.1666298969072164,1.9791876288659793,1.7814999999999999,-910.1563
42.0,1.0,606.0,1.1508608247422678,1.8703432989690723,1.3981958762886597,1.581363917525773,1.2627154639175258,1.6466855670103093,1.9324443298969072,1.8782082474226804,1.6456412371134022,-909.1797
42.0,1.0,607.0,1.0262659793814433,1.758903092783505,1.292017525773196,1.5103082474226803,1.117342268041237,1.5363061855670104,1.8067824742268042,1.6984711340206184,1.5462257731958764,-908.2031
42.0,1.0,608.0,1.1681288659793811,1.8496762886597937,1.2632845360824743,1.6210092783505157,1.1198247422680412,1.6757762886597938,1.6986907216494844,1.717219587628866,1.4225092783505153,-907.2266
42.0,1.0,609.0,1.3620164948453608,2.0461,1.3360835051546391,1.804554639175258,1.1991443298969073,1.8234340206185566,1.7423886597938143,1.8048051546391752,1.342298969072165,-906.25
42.0,1.0,610.0,1.6065288659793813,2.202442268041237,1.484001030927835,1.9590546391752577,1.4352288659793813,1.9661577319587629,1.8892762886597936,1.8972742268041238,1.431141237113402,-905.2734
42.0,1.0,611.0,1.6146721649484537,2.115736082474227,1.4120649484536083,1.9047896907216495,1.3659958762886597,1.9011948453608247,1.7485278350515465,1.8491938144329898,1.3426938144329896,-904.2969
42.0,1.0,612.0,1.680954639175258,2.1826123711340206,1.4968,1.851661855670103,1.483,1.8377443298969072,1.8337061855670103,1.8528268041237113,1.4285422680412372,-903.3203
42.0,1.0,613.0,1.7957257731958765,2.1684587628865977,1.5523628865979382,1.7817010309278352,1.511960824742268,1.7569144329896909,1.9416113402061854,1.8609092783505155,1.4764278350515465,-902.3438
42.0,1.0,614.0,1.686479381443299,2.0301309278350517,1.368379381443299,1.6319917525773195,1.3096855670103094,1.598385567010309,1.7839247422680413,1.784858762886598,1.4661969072164949,-901.3672
42.0,1.0,615.0,1.7374051546391749,2.2636680412371133,1.4551711340206186,1.8248649484536081,1.4349969072164948,1.779642268041237,1.8892113402061856,2.011336082474227,1.67969793814433,-900.3906
42.0,1.0,616.0,1.8483216494845363,2.491158762886598,1.5970288659793814,1.9801876288659794,1.5803350515463919,1.9408206185567012,2.070223711340206,2.104884536082474,1.8006824742268042,-899.4141
42.0,1.0,617.0,1.8658546391752577,2.5647072164948455,1.6894536082474227,2.099234020618557,1.5433515463917524,2.0937237113402065,2.1980113402061856,2.1543072164948454,1.8041298969072164,-898.4375
42.0,1.0,618.0,1.7746082474226803,2.530740206185567,1.7213041237113402,2.1032721649484536,1.4978103092783506,2.096638144329897,2.19769793814433,2.154646391752577,1.7108463917525774,-897.4609
42.0,1.0,619.0,1.5703247422680413,2.413886597938144,1.684584536082474,1.9775082474226806,1.302296907216495,2.0833721649484533,1.9291422680412371,2.1735886597938143,1.5569680412371132,-896.4844
42.0,1.0,620.0,1.4519711340206185,2.2520958762886596,1.6178030927835054,1.9530061855670104,1.0103876288659794,2.1477876288659794,1.6320917525773198,2.24469793814433,1.3146958762886598,-895.5078
