subject,condition,sample,Fz,FCz,Cz,FC3,FC4,C3,C4,CP3,CP4,time_ms
52.0,1.0,1.0,3.7832242105263156,5.289665263157895,5.146685263157895,2.6481631578947367,4.035834736842105,2.401927368421053,3.5526789473684213,2.361644210526316,2.8455557894736843,-1500.0
52.0,1.0,2.0,3.938013684210526,5.342005263157895,5.149210526315789,2.7141221052631574,4.241897894736842,2.5831031578947368,3.596776842105263,2.456802105263158,2.789325263157895,-1499.0234
52.0,1.0,3.0,4.258389473684211,5.463212631578947,5.2107715789473685,2.995467368421053,4.5580610526315795,2.8177642105263163,3.7004357894736843,2.49548,2.733928421052632,-1498.0469
52.0,1.0,4.0,4.462402105263158,5.544588421052632,5.093704210526316,3.1086968421052634,4.551890526315789,2.9489768421052633,3.5853621052631577,2.582501052631579,2.5861799999999997,-1497.0703
52.0,1.0,5.0,4.362162105263158,5.471568421052631,4.860227368421053,2.7505463157894736,4.414603157894737,2.8647778947368425,3.3273684210526313,2.5367231578947367,2.428573684210526,-1496.0938
52.0,1.0,6.0,4.093674736842105,5.180627368421053,4.495245263157894,2.318365263157895,4.059641052631578,2.598466315789474,3.048641052631579,2.2138515789473683,2.063235789473684,-1495.1172
52.0,1.0,7.0,3.6973610526315785,4.888636842105263,4.218322105263158,1.8903052631578945,3.65006,2.163844210526316,2.7918115789473688,1.7025852631578946,1.7004957894736843,-1494.1406
52.0,1.0,8.0,3.347774736842106,4.669678947368421,4.081250526315789,1.528386315789474,3.396501052631579,1.8238168421052632,2.4908336842105263,1.5226221052631579,1.4489042105263157,-1493.1641
52.0,1.0,9.0,3.192665263157895,4.488372631578947,3.9860894736842103,1.1733536842105263,3.5325831578947366,1.4930715789473685,2.4605105263157894,1.3832652631578948,1.363941052631579,-1492.1875
52.0,1.0,10.0,3.1046273684210526,4.389234736842106,3.917638947368421,0.9047063157894735,3.7537463157894737,1.1662084210526313,2.7295263157894736,1.1434305263157896,1.4861600000000001,-1491.2109
52.0,1.0,11.0,3.0650663157894735,4.340914736842105,3.886426315789474,0.6580610526315789,3.8554526315789475,0.9078736842105264,2.845918947368421,1.083898947368421,1.5835221052631578,-1490.2344
52.0,1.0,12.0,3.192373684210526,4.43058,3.905842105263158,0.8013936842105263,4.009421052631579,1.0713326315789473,2.9321894736842102,1.2577336842105264,1.647264210526316,-1489.2578
52.0,1.0,13.0,3.0483610526315785,4.269355789473684,3.7906263157894737,0.7503326315789474,3.7753505263157896,1.1020526315789474,2.693024210526316,1.2394852631578948,1.56032,-1488.2813
52.0,1.0,14.0,2.8159052631578945,4.042798947368421,3.6520684210526317,0.8351505263157896,3.6435094736842104,1.007556842105263,2.63554947368421,1.1129757894736843,1.487951578947368,-1487.3047
52.0,1.0,15.0,2.7981505263157893,3.999384210526316,3.5835231578947364,1.1177031578947367,3.5777821052631578,0.9968536842105264,2.664636842105263,1.0930515789473685,1.411415789473684,-1486.3281
52.0,1.0,16.0,2.9131694736842104,4.094361052631579,3.7455557894736837,1.2478115789473683,3.4801726315789474,1.1484515789473684,2.7576063157894737,1.2216863157894737,1.5425105263157894,-1485.3516
52.0,1.0,17.0,3.2188873684210524,4.454672631578947,4.183175789473684,1.5019768421052633,3.7135105263157895,1.5057347368421055,3.025498947368421,1.754761052631579,1.8475336842105263,-1484.375
52.0,1.0,18.0,3.3475663157894737,4.65688,4.3628094736842105,1.734836842105263,3.7897442105263157,1.6612126315789475,3.083314736842105,2.0909368421052634,1.9987315789473685,-1483.3984
52.0,1.0,19.0,3.5175505263157896,4.801014736842105,4.565288421052632,2.0212705263157895,3.636256842105263,2.0129178947368422,3.1487631578947366,2.439317894736842,2.2532726315789473,-1482.4219
52.0,1.0,20.0,3.6797736842105264,4.898250526315789,4.658894736842105,2.081617894736842,3.486168421052631,2.2961147368421053,3.055078947368421,2.772644210526316,2.256845263157895,-1481.4453
52.0,1.0,21.0,3.791903157894737,4.972776842105263,4.800026315789474,2.08964,3.6144305263157896,2.2790778947368424,2.9853989473684215,2.811913684210526,2.1897305263157896,-1480.4688
52.0,1.0,22.0,3.841278947368421,5.127451578947369,4.9634442105263155,2.077271578947369,3.6349021052631576,2.298024210526316,2.913556842105263,2.585118947368421,2.100693684210526,-1479.4922
52.0,1.0,23.0,3.658518947368421,5.134107368421053,5.023866315789474,1.9902663157894738,3.4991663157894735,2.385082105263158,2.7869200000000003,2.581106315789474,1.977273684210526,-1478.5156
52.0,1.0,24.0,3.3422673684210524,4.931228421052632,4.9506694736842105,1.9883694736842106,3.2792715789473683,2.2963515789473683,2.6284105263157893,2.586054736842105,1.718881052631579,-1477.5391
52.0,1.0,25.0,3.1607821052631575,4.816885263157895,4.8921210526315795,1.976256842105263,3.1313821052631576,2.269153684210526,2.6522063157894737,2.6743515789473684,1.7198284210526316,-1476.5625
52.0,1.0,26.0,3.396142105263158,5.101573684210527,5.11567052631579,2.064635789473684,3.3695147368421052,2.492192631578947,2.936045263157895,2.9440242105263157,2.0646147368421053,-1475.5859
52.0,1.0,27.0,3.610301052631579,5.375938947368421,5.286764210526315,2.079393684210526,3.586958947368421,2.670924210526316,3.068101052631579,3.19987052631579,2.130717894736842,-1474.6094
52.0,1.0,28.0,3.608055789473684,5.403965263157895,5.2921463157894735,2.1554831578947367,3.536498947368421,2.6637105263157896,3.0193936842105265,3.0675873684210524,2.124098947368421,-1473.6328
52.0,1.0,29.0,3.617903157894737,5.304557894736842,5.18224,2.481447368421053,3.5368494736842107,2.4322726315789476,2.9537694736842104,2.5731621052631577,2.0187399999999998,-1472.6563
52.0,1.0,30.0,3.7642778947368423,5.3290263157894735,5.142710526315789,2.8937884210526317,3.598038947368421,2.396996842105263,3.0141621052631575,2.263182105263158,1.9821715789473684,-1471.6797
52.0,1.0,31.0,3.87593052631579,5.258714736842105,5.033094736842106,2.785618947368421,3.6680642105263157,2.2826536842105263,2.9725894736842107,2.0481831578947367,1.9709873684210526,-1470.7031
52.0,1.0,32.0,3.9209305263157894,5.355761052631579,5.023417894736842,2.7888768421052634,3.684788421052631,2.3423694736842107,2.9615831578947365,1.9741968421052631,1.954756842105263,-1469.7266
52.0,1.0,33.0,3.8963336842105263,5.392228421052632,5.112305263157895,2.8172957894736843,3.698917894736842,2.401086315789474,3.099905263157895,2.0306021052631578,2.128714736842105,-1468.75
52.0,1.0,34.0,4.061185263157895,5.460612631578948,5.204036842105263,3.115956842105263,3.8862452631578948,2.607263157894737,3.2777894736842104,2.1823715789473686,2.2099989473684207,-1467.7734
52.0,1.0,35.0,4.203646315789474,5.5410157894736844,5.1459673684210525,3.4668200000000002,4.0275178947368415,2.635331578947368,3.3721473684210523,2.30392,2.1498926315789473,-1466.7969
52.0,1.0,36.0,4.197665263157895,5.487606315789473,5.000617894736842,3.4260147368421054,4.0063,2.5585326315789474,3.3236578947368423,2.319048421052632,2.1045157894736843,-1465.8203
52.0,1.0,37.0,4.166973684210526,5.422135789473684,4.887593684210526,3.318023157894737,3.943188421052631,2.432975789473684,3.1445084210526315,2.2300610526315787,1.9346178947368422,-1464.8438
52.0,1.0,38.0,4.212886315789474,5.4916989473684215,4.946613684210526,3.5458200000000004,3.8649631578947368,2.54998,3.0088442105263162,2.263072631578947,1.823161052631579,-1463.8672
52.0,1.0,39.0,4.256436842105263,5.491376842105263,4.843251578947369,3.566974736842105,3.9931515789473684,2.5892473684210526,2.8996115789473684,2.1035484210526314,1.7331936842105264,-1462.8906
52.0,1.0,40.0,4.039181052631579,5.260587368421052,4.591550526315789,3.2615652631578946,3.944877894736842,2.3678221052631576,2.7468252631578944,1.9171105263157893,1.5777842105263158,-1461.9141
52.0,1.0,41.0,4.016955789473685,5.255475789473684,4.5030442105263155,3.2531852631578944,3.9323084210526313,2.3454905263157895,2.6975547368421053,1.8774336842105264,1.5449968421052631,-1460.9375
52.0,1.0,42.0,4.134188421052631,5.388648421052632,4.623984210526316,3.4721515789473685,4.001927368421052,2.501702105263158,2.9775378947368423,1.9673589473684212,1.7652799999999997,-1459.9609
52.0,1.0,43.0,4.2410810526315785,5.509201052631579,4.713877894736842,3.5000147368421053,3.9937505263157895,2.5202873684210525,3.0952315789473688,2.0643873684210523,1.8410515789473685,-1458.9844
52.0,1.0,44.0,4.319923157894737,5.602898947368421,4.675610526315789,3.2827736842105266,3.984143157894737,2.490762105263158,2.9581442105263154,2.2050905263157894,1.7452894736842106,-1458.0078
52.0,1.0,45.0,4.398052631578947,5.672422105263157,4.784336842105263,3.347077894736842,3.979293684210526,2.507275789473684,2.895337894736842,2.2710294736842105,1.7261347368421052,-1457.0313
52.0,1.0,46.0,4.378394736842105,5.603356842105263,4.77509052631579,3.166641052631579,3.8289126315789472,2.5731042105263158,2.7004147368421054,2.0854305263157893,1.5850168421052633,-1456.0547
52.0,1.0,47.0,4.210517894736842,5.430298947368422,4.642782105263158,3.0707368421052634,3.4981294736842106,2.5082252631578945,2.3113747368421054,1.9010873684210525,1.2129326315789473,-1455.0781
52.0,1.0,48.0,4.26727052631579,5.463682105263158,4.751041052631579,3.033967368421053,3.535714736842105,2.578878947368421,2.31156,2.066037894736842,1.045161052631579,-1454.1016
52.0,1.0,49.0,4.154571578947368,5.349741052631579,4.689501052631579,2.8010684210526313,3.5182294736842104,2.375866315789474,2.1496221052631577,1.9840768421052628,0.82488,-1453.125
52.0,1.0,50.0,3.982052631578947,5.253508421052632,4.658015789473684,2.6836294736842103,3.479607368421053,2.0545494736842103,2.1727494736842106,1.7752768421052634,0.7842168421052632,-1452.1484
52.0,1.0,51.0,3.948298947368421,5.268363157894737,4.601672631578947,2.636593684210526,3.6097294736842107,2.0517673684210527,2.303903157894737,1.8048915789473683,0.9201389473684213,-1451.1719
52.0,1.0,52.0,4.284671578947369,5.585832631578947,4.828207368421053,2.763417894736842,4.191461052631579,2.2778642105263156,2.723909473684211,1.9945810526315788,1.2237115789473685,-1450.1953
52.0,1.0,53.0,4.681664210526316,5.97338947368421,5.158663157894737,2.6945263157894734,4.79446,2.361774736842105,3.1057431578947368,2.0440926315789474,1.4967884210526314,-1449.2188
52.0,1.0,54.0,4.777598947368421,6.1576231578947365,5.374526315789473,2.607775789473684,5.069855789473684,2.3252178947368423,3.2380852631578945,2.009058947368421,1.719156842105263,-1448.2422
52.0,1.0,55.0,4.855735789473684,6.193341052631578,5.431467368421053,2.5361578947368417,5.217762105263158,2.1854136842105265,3.330724210526316,1.7802810526315789,1.7314189473684212,-1447.2656
52.0,1.0,56.0,4.960534736842105,6.124789473684211,5.376015789473684,2.7814357894736843,5.356506315789473,2.167496842105263,3.339281052631579,1.639137894736842,1.5824642105263158,-1446.2891
52.0,1.0,57.0,4.9304926315789475,6.116662105263158,5.300446315789474,2.9943494736842102,5.28402,2.2009452631578945,3.2316052631578946,1.5838547368421054,1.439421052631579,-1445.3125
52.0,1.0,58.0,4.659404210526316,5.913657894736843,5.144178947368421,2.8452252631578947,4.952383157894737,1.999842105263158,3.0261284210526314,1.4598431578947368,1.2223736842105264,-1444.3359
52.0,1.0,59.0,4.5302884210526315,5.802696842105264,5.061232631578947,2.8179199999999995,4.788821052631579,1.8242421052631579,2.9553368421052633,1.3890821052631581,1.2293631578947368,-1443.3594
52.0,1.0,60.0,4.627871578947369,5.893513684210526,5.087815789473684,3.0344252631578947,4.76274947368421,1.7327526315789474,2.890176842105263,1.3440589473684212,1.2089021052631579,-1442.3828
52.0,1.0,61.0,4.645608421052632,5.9198273684210525,5.166941052631579,2.985538947368421,4.615267368421053,1.6108052631578946,2.86513052631579,1.3197842105263158,1.2658389473684208,-1441.4063
52.0,1.0,62.0,4.637228421052631,5.99339052631579,5.452497894736842,2.8567894736842105,4.568362105263158,1.722456842105263,3.1206305263157894,1.513878947368421,1.6969873684210526,-1440.4297
52.0,1.0,63.0,4.8073578947368425,6.21085052631579,5.688083157894736,2.733977894736842,4.751195789473685,2.0896631578947367,3.3772305263157896,1.9575399999999998,1.9976515789473686,-1439.4531
52.0,1.0,64.0,4.982661052631579,6.319417894736842,5.7806536842105265,2.867877894736842,4.99314,2.2473494736842103,3.5483568421052634,2.2476736842105263,2.121601052631579,-1438.4766
52.0,1.0,65.0,4.943658947368421,6.200169473684211,5.653756842105263,2.8878463157894734,4.873365263157894,2.283825263157895,3.4363084210526313,2.2914557894736842,2.1503273684210527,-1437.5
52.0,1.0,66.0,4.820844210526316,6.135444210526316,5.571551578947369,2.8596926315789473,4.690518947368421,2.2389336842105263,3.2856957894736842,2.2329357894736845,2.098404210526316,-1436.5234
52.0,1.0,67.0,4.722,6.10906947368421,5.523863157894738,2.868321052631579,4.636574736842105,2.1762105263157894,3.2685157894736845,2.1849473684210525,2.068013684210526,-1435.5469
52.0,1.0,68.0,4.594938947368421,6.013314736842106,5.453355789473684,2.7613705263157895,4.320823157894737,2.3507452631578944,3.1515884210526313,2.300717894736842,2.040883157894737,-1434.5703
52.0,1.0,69.0,4.303202105263158,5.815138947368421,5.394661052631579,2.486522105263158,3.809198947368421,2.382646315789474,2.87112,2.477066315789474,1.9482915789473685,-1433.5938
52.0,1.0,70.0,4.421938947368421,5.968516842105263,5.729938947368421,2.6085252631578952,3.990049473684211,2.501795789473684,3.118141052631579,2.8302505263157895,2.4015084210526316,-1432.6172
52.0,1.0,71.0,4.476896842105264,6.100727368421052,5.992589473684211,2.4518999999999997,4.288448421052632,2.6738231578947365,3.5231073684210528,3.0089357894736843,2.839204210526316,-1431.6406
52.0,1.0,72.0,4.455403157894737,6.175695789473684,6.090662105263157,2.2766231578947367,4.372841052631578,2.8620873684210526,3.786784210526316,3.2669052631578945,3.125237894736842,-1430.6641
52.0,1.0,73.0,4.7601821052631585,6.486374736842105,6.378455789473684,2.445225263157895,4.580936842105263,3.1972705263157897,4.1605684210526315,3.67686,3.5035052631578942,-1429.6875
52.0,1.0,74.0,4.726174736842105,6.484704210526316,6.4295757894736845,2.3447884210526313,4.555988421052631,3.323445263157895,4.131045263157895,3.869162105263158,3.5925705263157894,-1428.7109
52.0,1.0,75.0,4.677432631578947,6.449553684210525,6.415906315789474,2.4192852631578945,4.478066315789474,3.446724210526316,4.061344210526316,4.111377894736842,3.5694484210526314,-1427.7344
52.0,1.0,76.0,4.810881052631579,6.612801052631578,6.688785263157895,2.858125263157895,4.6947442105263155,3.6698621052631575,4.341303157894736,4.272308421052632,3.8199894736842106,-1426.7578
52.0,1.0,77.0,4.995633684210526,6.8615389473684205,7.0176221052631576,3.1699536842105265,4.921325263157894,3.8622010526315793,4.685467368421053,4.364432631578947,4.1580315789473685,-1425.7813
52.0,1.0,78.0,5.146178947368421,7.058261052631579,7.28491052631579,3.3138536842105264,5.215343157894737,4.188564210526316,5.05767052631579,4.712983157894737,4.488842105263158,-1424.8047
52.0,1.0,79.0,5.423173684210527,7.227782105263159,7.3644842105263155,3.630842105263158,5.452072631578948,4.369133684210526,5.1667852631578945,4.916621052631579,4.556912631578947,-1423.8281
52.0,1.0,80.0,5.362033684210527,7.165742105263158,7.219040000000001,3.6527621052631583,5.351787368421052,4.317233684210526,4.97664,4.733225263157895,4.394625263157895,-1422.8516
52.0,1.0,81.0,5.269082105263158,7.021707368421052,7.10018,3.6174684210526316,5.18150947368421,4.197833684210527,4.685915789473684,4.63110947368421,4.308542105263158,-1421.875
52.0,1.0,82.0,5.143749473684211,6.949436842105263,7.1009589473684205,3.7985673684210526,4.980175789473684,4.168589473684211,4.4751431578947365,4.719383157894737,4.349477894736842,-1420.8984
52.0,1.0,83.0,4.931147368421053,6.784672631578948,6.923842105263158,3.708718947368421,4.740104210526315,4.1061810526315785,4.316281052631579,4.6361294736842105,4.238504210526315,-1419.9219
52.0,1.0,84.0,4.935434736842105,6.724829473684211,6.826908421052631,3.5086736842105264,4.685017894736842,4.096292631578947,4.384905263157894,4.469265263157895,4.206483157894737,-1418.9453
52.0,1.0,85.0,4.999801052631579,6.84542,6.998151578947368,3.471026315789474,4.7506936842105265,4.181029473684211,4.506028421052632,4.563163157894738,4.393604210526316,-1417.9688
52.0,1.0,86.0,4.9541389473684205,6.850933684210527,7.025962105263158,3.5475242105263156,4.750736842105263,4.282982105263158,4.429403157894737,4.574206315789474,4.395481052631578,-1416.9922
52.0,1.0,87.0,5.15515052631579,7.041643157894737,7.135016842105263,3.76651052631579,4.807032631578947,4.4127,4.4298589473684205,4.6823536842105264,4.41814,-1416.0156
52.0,1.0,88.0,5.2827789473684215,7.082097894736842,7.1905600000000005,3.8727305263157894,4.8849410526315795,4.4021410526315785,4.50373894736842,4.736116842105264,4.403052631578948,-1415.0391
52.0,1.0,89.0,5.148766315789474,6.82987052631579,6.885413684210526,3.7417115789473687,4.821515789473684,4.177755789473684,4.39403052631579,4.525301052631579,4.186356842105263,-1414.0625
52.0,1.0,90.0,5.175283157894737,6.854996842105263,6.807262105263158,3.6655705263157894,4.9751084210526315,4.137412631578948,4.538658947368421,4.4318989473684205,4.236442105263158,-1413.0859
52.0,1.0,91.0,5.295125263157895,6.961792631578948,6.858686315789473,3.41366,5.081310526315789,4.102055789473685,4.560773684210527,4.4296221052631575,4.292546315789473,-1412.1094
52.0,1.0,92.0,5.273802105263157,6.983791578947368,6.912827368421053,3.3310926315789473,5.125681052631579,3.9453105263157897,4.445612631578947,4.3395052631578945,4.2104610526315795,-1411.1328
52.0,1.0,93.0,5.270773684210527,6.986346315789474,6.939824210526315,3.315526315789474,5.121788421052631,3.8760189473684212,4.188196842105263,4.41526947368421,4.001292631578948,-1410.1563
52.0,1.0,94.0,5.262207368421053,6.921722105263157,6.872791578947369,3.2117368421052634,5.1119978947368425,3.8493042105263156,4.110154736842105,4.406396842105264,3.8768884210526315,-1409.1797
52.0,1.0,95.0,5.402917894736842,7.109646315789473,7.06452,3.124013684210526,5.383753684210526,3.9210926315789476,4.505844210526316,4.462905263157895,4.148215789473684,-1408.2031
52.0,1.0,96.0,5.465802105263158,7.2029389473684216,7.1424199999999995,2.7848263157894735,5.530934736842106,3.976298947368421,4.806805263157894,4.568003157894736,4.316508421052632,-1407.2266
52.0,1.0,97.0,5.4063726315789475,7.091156842105263,7.000851578947367,2.617258947368421,5.409513684210527,3.8675231578947367,4.63406947368421,4.397336842105263,4.065347368421052,-1406.25
52.0,1.0,98.0,5.324132631578947,7.025002105263157,6.868926315789474,2.6478536842105265,5.2279,3.6359568421052635,4.3535621052631575,3.9951715789473687,3.7720242105263155,-1405.2734
52.0,1.0,99.0,5.582342105263158,7.279372631578947,7.038731578947368,2.974637894736842,5.427364210526316,3.808197894736842,4.488337894736842,4.038953684210527,3.809602105263158,-1404.2969
52.0,1.0,100.0,6.027487368421053,7.543757894736842,7.137405263157895,3.5552200000000003,5.800017894736842,4.076781052631579,4.732686315789474,4.228645263157895,3.8643136842105266,-1403.3203
52.0,1.0,101.0,5.906335789473684,7.380525263157895,6.922617894736842,3.4288757894736843,5.673070526315789,3.9185263157894736,4.555218947368421,4.07475052631579,3.714515789473684,-1402.3438
52.0,1.0,102.0,5.60992,7.139486315789474,6.759328421052632,3.085923157894737,5.297554736842105,3.706474736842105,4.222521052631579,3.8306863157894733,3.6294842105263156,-1401.3672
52.0,1.0,103.0,5.7156168421052636,7.230505263157895,6.867822105263158,3.331708421052632,5.228548421052632,3.8490663157894733,4.057146315789474,3.9654736842105267,3.6603547368421054,-1400.3906
52.0,1.0,104.0,6.029318947368421,7.459334736842105,7.047304210526316,3.7956705263157895,5.460472631578948,3.993631578947369,4.0676073684210525,4.19035052631579,3.72402,-1399.4141
52.0,1.0,105.0,6.175021052631578,7.542408421052631,7.055570526315789,4.018657894736842,5.6397547368421055,4.047475789473684,4.036115789473684,4.1886642105263165,3.608817894736842,-1398.4375
52.0,1.0,106.0,6.10171894736842,7.545776842105263,7.129028421052632,3.9550126315789473,5.5800789473684205,4.008687368421052,4.101031578947368,4.127788421052632,3.637341052631579,-1397.4609
52.0,1.0,107.0,6.045143157894737,7.5852273684210525,7.289358947368421,3.869882105263158,5.576143157894737,4.002867368421053,4.326347368421052,4.2753073684210525,3.8203494736842107,-1396.4844
52.0,1.0,108.0,5.960252631578948,7.617993684210526,7.325654736842105,4.059888421052631,5.570316842105264,4.058154736842106,4.419458947368421,4.405737894736842,3.8743094736842103,-1395.5078
52.0,1.0,109.0,6.041098947368421,7.730413684210527,7.460664210526316,4.158110526315789,5.790541052631579,4.122902105263158,4.634455789473685,4.560481052631579,3.995446315789474,-1394.5313
52.0,1.0,110.0,6.193252631578947,7.8956915789473685,7.533990526315789,4.0083126315789475,6.141483157894737,4.018933684210526,4.975466315789474,4.428814736842105,4.239813684210526,-1393.5547
52.0,1.0,111.0,6.287737894736842,7.997650526315789,7.533247368421053,3.7718368421052633,6.378228421052631,3.7436242105263156,5.308827368421053,4.178144210526316,4.452449473684211,-1392.5781
52.0,1.0,112.0,6.152458947368421,7.825311578947368,7.388798947368421,3.442993684210526,6.285425263157895,3.4557147368421055,5.207354736842105,3.8375547368421055,4.356975789473684,-1391.6016
52.0,1.0,113.0,5.9562410526315785,7.688558947368421,7.406738947368422,3.262711578947368,6.019067368421052,3.393378947368421,5.0023294736842105,3.694409473684211,4.188241052631579,-1390.625
52.0,1.0,114.0,5.955548421052632,7.752486315789474,7.576077894736842,3.186575789473684,5.771794736842105,3.268906315789474,4.8462231578947375,3.5373305263157895,4.219594736842105,-1389.6484
52.0,1.0,115.0,5.83877052631579,7.642503157894738,7.484168421052631,3.194736842105263,5.447986315789474,3.2277357894736842,4.593401052631579,3.4909221052631576,4.081901052631578,-1388.6719
52.0,1.0,116.0,5.865248421052631,7.671111578947368,7.559176842105264,3.480650526315789,5.1359936842105265,3.4735526315789476,4.44296947368421,3.6978126315789472,3.9933705263157897,-1387.6953
52.0,1.0,117.0,6.014768421052632,7.892602105263157,7.781863157894738,3.592728421052631,5.278903157894737,3.609802105263158,4.6093168421052635,3.8993410526315793,4.1356,-1386.7188
52.0,1.0,118.0,5.874476842105262,7.799003157894737,7.733373684210526,3.5574694736842103,5.167471578947368,3.522063157894737,4.513026315789474,3.73891052631579,4.098385263157895,-1385.7422
52.0,1.0,119.0,5.687741052631578,7.556536842105263,7.469858947368421,3.671281052631579,5.121826315789474,3.389766315789474,4.464693684210526,3.453396842105263,4.026643157894736,-1384.7656
52.0,1.0,120.0,5.812785263157895,7.682651578947368,7.551621052631579,4.017386315789474,5.372649473684211,3.548283157894737,4.7808789473684214,3.6556431578947364,4.3147,-1383.7891
52.0,1.0,121.0,5.6027157894736845,7.545298947368421,7.47554947368421,3.7851663157894735,5.237352631578947,3.5496578947368422,4.693348421052631,3.618734736842105,4.2781357894736844,-1382.8125
52.0,1.0,122.0,5.431916842105263,7.355238947368421,7.371175789473685,3.6702894736842104,5.193222105263158,3.5935842105263154,4.517728421052631,3.594413684210526,4.107087368421053,-1381.8359
52.0,1.0,123.0,5.440344210526316,7.353316842105263,7.377325263157895,3.7698126315789473,5.237812631578947,3.63974,4.327354736842105,3.5334284210526317,3.9284084210526315,-1380.8594
52.0,1.0,124.0,5.492285263157895,7.400103157894737,7.336562105263158,4.087301052631579,5.180588421052632,3.745383157894737,4.168457894736842,3.6563305263157897,3.816156842105263,-1379.8828
52.0,1.0,125.0,5.625854736842105,7.509890526315789,7.452006315789474,4.455394736842105,5.251296842105263,3.8605947368421054,4.274825263157895,3.9614410526315793,3.898574736842105,-1378.9063
52.0,1.0,126.0,5.6362147368421045,7.454687368421053,7.442742105263158,4.642824210526316,5.225041052631579,3.7544736842105264,4.3036705263157895,4.046266315789474,3.9754968421052634,-1377.9297
52.0,1.0,127.0,5.754355789473683,7.494258947368421,7.3905315789473685,4.491932631578948,5.304915789473684,3.661262105263158,4.403061052631579,4.062809473684211,4.063681052631579,-1376.9531
52.0,1.0,128.0,6.39816,8.092706315789474,7.8583336842105265,4.852290526315789,5.906861052631578,4.228307368421052,5.056635789473685,4.487687368421053,4.57388,-1375.9766
52.0,1.0,129.0,6.658618947368421,8.364934736842105,7.972322105263157,5.427357894736843,6.155256842105263,4.576162105263158,5.322,4.513105263157895,4.6606231578947375,-1375.0
52.0,1.0,130.0,6.50116,8.195487368421052,7.767276842105264,5.560584210526316,5.940728421052631,4.558067368421053,5.144222105263158,4.472907368421053,4.5099094736842105,-1374.0234
52.0,1.0,131.0,6.132383157894737,7.775722105263158,7.410125263157895,5.070904210526316,5.523936842105263,4.275946315789474,4.647028421052632,4.322822105263158,4.196537894736842,-1373.0469
52.0,1.0,132.0,5.671638947368421,7.360615789473685,7.008894736842105,4.607655789473684,5.125686315789474,3.914278947368421,4.119604210526315,4.1525336842105265,3.7222305263157893,-1372.0703
52.0,1.0,133.0,5.235195789473684,7.067921052631579,6.897849473684211,4.04012,4.787785263157895,3.707428421052631,3.7863231578947367,3.951971578947368,3.5362273684210526,-1371.0938
52.0,1.0,134.0,4.954161052631579,6.786391578947369,6.7063968421052635,3.6992578947368417,4.4970221052631585,3.4329,3.531395789473684,3.6985852631578946,3.3578200000000002,-1370.1172
52.0,1.0,135.0,4.764681052631579,6.57219894736842,6.469027368421052,3.8182357894736842,4.383122105263158,3.282252631578947,3.4035915789473687,3.695970526315789,3.272056842105263,-1369.1406
52.0,1.0,136.0,4.730692631578948,6.469716842105264,6.287151578947369,4.021845263157895,4.257868421052631,3.2763621052631575,3.2909663157894737,3.6722305263157895,3.017971578947368,-1368.1641
52.0,1.0,137.0,4.9170842105263155,6.51528947368421,6.344461052631579,4.2167389473684205,4.227933684210527,3.4526494736842106,3.2751442105263155,3.740575789473684,2.9315073684210526,-1367.1875
52.0,1.0,138.0,5.1713894736842105,6.616767368421052,6.311190526315789,4.293544210526316,4.334942105263158,3.3604536842105266,3.416167368421053,3.6562989473684215,2.914121052631579,-1366.2109
52.0,1.0,139.0,5.207765263157895,6.510751578947368,6.0628831578947375,4.178668421052632,4.407612631578948,3.145558947368421,3.4059494736842106,3.4798273684210526,2.740492631578947,-1365.2344
52.0,1.0,140.0,5.134,6.373570526315789,5.916867368421053,4.132674736842105,4.352011578947368,3.090217894736842,3.3166642105263158,3.4413157894736845,2.6304494736842106,-1364.2578
52.0,1.0,141.0,5.099306315789474,6.344157894736841,5.877327368421052,4.290290526315789,4.407626315789473,3.155455789473684,3.344217894736842,3.5022947368421056,2.5881294736842104,-1363.2813
52.0,1.0,142.0,5.096706315789474,6.327486315789474,5.921108421052632,4.299281052631579,4.628497894736842,3.1473726315789476,3.50196,3.3791852631578947,2.6877736842105264,-1362.3047
52.0,1.0,143.0,5.227713684210527,6.38704947368421,5.946417894736842,4.2764652631578945,4.81796947368421,3.184993684210526,3.694301052631579,3.4295747368421052,2.847448421052632,-1361.3281
52.0,1.0,144.0,5.022355789473685,6.188363157894737,5.727074736842105,3.9778368421052632,4.746431578947369,2.969671578947368,3.61718,3.335325263157895,2.692388421052631,-1360.3516
52.0,1.0,145.0,4.759685263157895,5.944024210526316,5.533726315789473,3.541314736842105,4.688596842105263,2.817278947368421,3.417362105263158,3.243216842105263,2.4498778947368423,-1359.375
52.0,1.0,146.0,4.361485263157895,5.611065263157895,5.23259052631579,3.10693052631579,4.339375789473684,2.599510526315789,3.009043157894737,3.061302105263158,2.087903157894737,-1358.3984
52.0,1.0,147.0,4.219551578947368,5.422933684210526,4.950807368421053,2.93662,3.9989831578947372,2.471378947368421,2.6482357894736843,3.0048536842105262,1.8258884210526314,-1357.4219
52.0,1.0,148.0,4.328816842105263,5.415531578947369,4.85162947368421,2.87922947368421,3.6458347368421054,2.6715431578947366,2.336132631578947,3.145251578947368,1.6286568421052632,-1356.4453
52.0,1.0,149.0,4.6364442105263155,5.679215789473684,5.133073684210526,3.057386315789474,3.7947421052631576,2.899384210526316,2.4067757894736843,3.4441652631578945,1.8043673684210528,-1355.4688
52.0,1.0,150.0,4.65284947368421,5.790254736842106,5.332254736842105,3.222663157894737,3.868645263157895,3.0109031578947367,2.573197894736842,3.738122105263158,2.057226315789474,-1354.4922
52.0,1.0,151.0,4.469857894736842,5.678187368421053,5.308604210526316,3.28066947368421,3.706762105263158,2.99764,2.5732463157894734,3.749296842105263,2.033742105263158,-1353.5156
52.0,1.0,152.0,4.23694947368421,5.530695789473684,5.164098947368421,3.426682105263158,3.688109473684211,2.81226947368421,2.6128526315789475,3.513884210526316,1.9811747368421053,-1352.5391
52.0,1.0,153.0,4.239906315789474,5.592445263157894,5.095787368421052,3.6079431578947365,4.012531578947368,2.777024210526316,2.8046463157894737,3.415622105263158,1.9743273684210527,-1351.5625
52.0,1.0,154.0,4.4261021052631575,5.721148421052631,5.072556842105263,3.5660494736842105,4.161682105263158,2.9275273684210523,2.8573894736842105,3.4849578947368416,1.9351199999999997,-1350.5859
52.0,1.0,155.0,4.559308421052632,5.75938,5.068351578947368,3.4438221052631577,4.099104210526316,3.0042526315789475,2.8565400000000003,3.62316,1.952923157894737,-1349.6094
52.0,1.0,156.0,4.650706315789473,5.7207842105263165,5.044995789473685,3.572563157894737,4.138212631578948,2.998304210526316,2.781191578947369,3.790190526315789,1.8785905263157894,-1348.6328
52.0,1.0,157.0,4.771330526315789,5.734036842105263,5.1325,3.890358947368421,4.377451578947369,3.0803989473684212,2.8357684210526317,4.040981052631579,1.941144210526316,-1347.6563
52.0,1.0,158.0,4.747592631578947,5.7632547368421045,5.234387368421053,3.813477894736842,4.481705263157894,3.051556842105263,2.9992873684210526,4.075597894736842,2.0856326315789477,-1346.6797
52.0,1.0,159.0,4.545262105263157,5.695401052631579,5.182336842105263,3.5345926315789473,4.323055789473684,2.9356526315789475,2.9776568421052634,3.8618547368421057,2.0105926315789473,-1345.7031
52.0,1.0,160.0,4.625015789473684,5.805984210526315,5.284172631578947,3.405307368421053,4.551355789473685,2.9185073684210523,3.104842105263158,3.731423157894737,2.1061642105263156,-1344.7266
52.0,1.0,161.0,4.891541052631578,6.1535010526315785,5.501755789473684,3.5627284210526318,5.0057368421052635,3.186776842105263,3.2774936842105262,3.9355989473684208,2.2558631578947366,-1343.75
52.0,1.0,162.0,5.176362105263158,6.406198947368421,5.6303757894736846,3.8342294736842106,5.002801052631579,3.5018157894736843,3.1473726315789476,4.16186,2.129405263157895,-1342.7734
52.0,1.0,163.0,5.1891336842105265,6.380992631578947,5.543870526315789,3.7341684210526314,4.760675789473685,3.610421052631579,2.9274873684210525,4.199832631578947,1.9071884210526315,-1341.7969
52.0,1.0,164.0,4.8010631578947365,6.053605263157895,5.321536842105263,3.2799831578947365,4.319427368421053,3.304247368421053,2.5825694736842104,3.9388105263157898,1.7501094736842102,-1340.8203
52.0,1.0,165.0,4.400622105263158,5.782543157894737,5.082478947368421,3.045167368421052,4.102743157894737,2.9227968421052632,2.4498568421052633,3.4797726315789475,1.706798947368421,-1339.8438
52.0,1.0,166.0,4.100597894736842,5.54488,4.932556842105263,2.9016305263157895,4.063192631578947,2.8125505263157895,2.5209905263157895,3.392317894736842,1.8632600000000001,-1338.8672
52.0,1.0,167.0,3.9987873684210524,5.430997894736842,4.875496842105264,2.7046978947368423,3.910638947368421,2.875405263157895,2.486681052631579,3.438697894736842,1.9754084210526317,-1337.8906
52.0,1.0,168.0,4.189417894736843,5.562823157894737,4.999436842105263,2.6163905263157896,4.013926315789473,2.97808,2.6035136842105264,3.497733684210526,2.023726315789474,-1336.9141
52.0,1.0,169.0,4.446602105263159,5.796848421052632,5.17483894736842,2.855155789473684,4.257005263157895,3.264912631578947,2.8845021052631576,3.854418947368421,2.258095789473684,-1335.9375
52.0,1.0,170.0,4.427725263157894,5.762810526315789,5.091663157894737,2.9366389473684213,4.19654,3.3337242105263156,2.817034736842105,4.1007610526315785,2.3047684210526316,-1334.9609
52.0,1.0,171.0,4.537343157894736,5.759614736842106,5.17273052631579,2.979458947368421,4.378690526315789,3.4329284210526314,2.93364,4.237952631578947,2.46508,-1333.9844
52.0,1.0,172.0,4.6210621052631575,5.778292631578948,5.26048,2.8240547368421054,4.55601052631579,3.3749368421052632,3.140583157894737,4.156618947368421,2.5781052631578945,-1333.0078
52.0,1.0,173.0,4.525415789473684,5.803949473684211,5.301496842105263,2.2942894736842105,4.51748,3.2435157894736846,3.297054736842105,3.955209473684211,2.745676842105263,-1332.0313
52.0,1.0,174.0,4.632453684210526,5.971986315789474,5.570085263157894,2.518747368421052,4.749652631578948,3.347816842105263,3.5907126315789477,3.9574357894736845,3.1492105263157897,-1331.0547
52.0,1.0,175.0,4.707904210526316,6.048750526315789,5.738267368421052,2.926413684210526,4.704913684210526,3.4053642105263155,3.767886315789474,4.086876842105263,3.4079599999999997,-1330.0781
52.0,1.0,176.0,4.499891578947369,5.826470526315789,5.653606315789473,2.906196842105263,4.344278947368421,3.2479431578947366,3.601158947368421,3.9452410526315793,3.3256610526315793,-1329.1016
52.0,1.0,177.0,4.403934736842105,5.8375315789473685,5.650294736842105,2.814663157894737,4.19388,3.378696842105263,3.5862073684210523,4.064427368421053,3.3906147368421053,-1328.125
52.0,1.0,178.0,4.467544210526316,6.0189821052631585,5.811116842105263,3.042777894736842,4.117307368421053,3.5535768421052634,3.545863157894737,4.335888421052632,3.4676242105263158,-1327.1484
52.0,1.0,179.0,4.545795789473684,6.075488421052632,5.781103157894736,3.3353610526315784,3.9963652631578945,3.519903157894737,3.3931389473684215,4.33453894736842,3.3646873684210528,-1326.1719
52.0,1.0,180.0,4.532582105263158,6.027996842105264,5.782232631578947,3.326438947368421,3.915861052631579,3.331836842105263,3.2846642105263157,4.220231578947368,3.295685263157895,-1325.1953
52.0,1.0,181.0,4.528622105263159,5.992433684210527,5.801470526315789,3.4688799999999995,3.966358947368421,3.248002105263158,3.2649,4.158529473684211,3.321863157894737,-1324.2188
52.0,1.0,182.0,4.867612631578948,6.283743157894737,6.034737894736843,3.704404210526316,4.2930284210526315,3.4520484210526314,3.4953052631578942,4.23534,3.50992,-1323.2422
52.0,1.0,183.0,5.071244210526316,6.44532105263158,6.068235789473684,3.5991073684210524,4.644318947368421,3.422407368421053,3.632242105263158,4.145822105263158,3.6291336842105264,-1322.2656
52.0,1.0,184.0,5.206877894736842,6.522610526315789,6.155779999999999,3.6530452631578942,4.877067368421052,3.4911789473684207,3.7715642105263156,4.228417894736842,3.810857894736842,-1321.2891
52.0,1.0,185.0,5.286626315789474,6.735721052631579,6.431267368421053,3.656072631578948,5.082210526315789,3.577991578947368,3.995337894736842,4.584968421052632,4.03458,-1320.3125
52.0,1.0,186.0,5.440293684210526,6.987096842105264,6.6035621052631575,4.022676842105263,5.321249473684211,3.75082,4.167370526315789,4.768571578947368,4.163461052631579,-1319.3359
52.0,1.0,187.0,5.65324,7.152746315789473,6.7271757894736846,4.555401052631579,5.505895789473684,4.031468421052632,4.1909368421052635,4.910112631578947,4.277334736842105,-1318.3594
52.0,1.0,188.0,5.755917894736842,7.270767368421052,6.811769473684211,4.835329473684211,5.567295789473684,4.326226315789474,4.069553684210526,5.037329473684211,4.171732631578947,-1317.3828
52.0,1.0,189.0,5.825053684210526,7.307107368421053,6.816682105263157,4.599134736842105,5.755314736842106,4.337654736842105,4.112177894736842,5.006755789473684,4.1145,-1316.4063
52.0,1.0,190.0,5.947746315789473,7.297693684210526,6.783911578947368,4.563244210526316,5.866725263157894,4.3264852631578945,4.228795789473684,4.930855789473684,4.156603157894737,-1315.4297
52.0,1.0,191.0,5.938876842105263,7.2495547368421045,6.603502105263158,4.569774736842105,5.789533684210527,4.38822,4.171996842105263,4.8849831578947365,4.043482105263158,-1314.4531
52.0,1.0,192.0,5.841118947368421,7.174977894736842,6.549865263157895,4.143481052631579,5.9068810526315785,4.254265263157895,4.172276842105264,4.759096842105263,4.05182,-1313.4766
52.0,1.0,193.0,5.770688421052632,7.060821052631579,6.556404210526315,4.024984210526316,5.931465263157895,4.231473684210527,4.156596842105263,4.830962105263158,4.120124210526315,-1312.5
52.0,1.0,194.0,5.838635789473684,7.120806315789474,6.551818947368422,4.063815789473685,5.833875789473685,4.227281052631579,4.10839894736842,4.856028421052631,4.109210526315789,-1311.5234
52.0,1.0,195.0,5.7337031578947375,7.087728421052632,6.607927368421053,4.073592631578948,5.7114242105263155,4.163724210526316,4.186458947368421,4.909147368421053,4.103683157894737,-1310.5469
52.0,1.0,196.0,5.358673684210526,6.895778947368422,6.553835789473685,3.567382105263158,5.458273684210526,3.901974736842105,4.040393684210526,4.787778947368421,3.9920494736842107,-1309.5703
52.0,1.0,197.0,5.043333684210526,6.754686315789474,6.4339663157894735,3.412523157894737,5.2508799999999995,3.8294947368421055,3.834156842105263,4.592317894736842,3.8640947368421052,-1308.5938
52.0,1.0,198.0,4.908197894736842,6.623713684210526,6.239870526315789,3.5677473684210526,4.989864210526316,3.747431578947369,3.432271578947368,4.4528336842105265,3.633834736842105,-1307.6172
52.0,1.0,199.0,4.760574736842105,6.449034736842105,6.041705263157895,3.3333684210526315,4.699390526315789,3.464644210526316,3.101902105263158,4.062757894736842,3.4311726315789475,-1306.6406
52.0,1.0,200.0,4.759855789473685,6.398971578947368,5.948751578947368,3.158932631578948,4.59986947368421,3.4302042105263157,3.179095789473684,3.977526315789474,3.463051578947369,-1305.6641
52.0,1.0,201.0,4.863683157894736,6.438421052631579,6.001651578947368,3.322153684210526,4.767174736842105,3.5748800000000003,3.541361052631579,4.1406094736842105,3.6893242105263155,-1304.6875
52.0,1.0,202.0,4.932828421052632,6.394993684210527,5.932498947368421,3.250785263157895,4.996830526315789,3.575163157894737,3.7244157894736842,4.145953684210527,3.814306315789474,-1303.7109
52.0,1.0,203.0,4.825643157894737,6.4519126315789475,6.00552,3.2187357894736843,5.126553684210527,3.4550663157894737,3.816142105263158,4.0906242105263155,3.8904063157894737,-1302.7344
52.0,1.0,204.0,4.695906315789474,6.4349494736842106,6.142241052631579,3.2752547368421054,5.205917894736842,3.391615789473684,3.948184210526316,4.13242947368421,4.140751578947368,-1301.7578
52.0,1.0,205.0,4.692026315789474,6.35727052631579,6.076475789473685,3.081198947368421,5.089771578947368,3.3159705263157897,3.8735842105263156,3.9289,4.115165263157895,-1300.7813
52.0,1.0,206.0,4.836642105263158,6.386104210526316,6.123447368421052,2.7876305263157897,5.194526315789473,3.1862231578947364,3.8976884210526315,3.748576842105263,4.124594736842106,-1299.8047
52.0,1.0,207.0,4.929498947368422,6.488395789473684,6.174306315789474,2.5368578947368423,5.384513684210527,3.1497178947368423,4.07599052631579,3.6434073684210526,4.21207052631579,-1298.8281
52.0,1.0,208.0,5.000206315789474,6.566027368421053,6.2251,2.7091347368421053,5.42962947368421,3.185406315789474,4.147248421052632,3.4315957894736844,4.281086315789474,-1297.8516
52.0,1.0,209.0,5.398277894736842,6.926075789473685,6.482468421052632,3.2241284210526313,5.713198947368421,3.3574157894736842,4.43106947368421,3.4737568421052627,4.564444210526316,-1296.875
52.0,1.0,210.0,5.8323368421052635,7.3415568421052635,6.879133684210526,3.580937894736842,6.108002105263158,3.555403157894737,4.956806315789473,3.6385336842105267,5.033951578947368,-1295.8984
52.0,1.0,211.0,5.947297894736842,7.420528421052632,7.013592631578947,3.8013357894736846,6.227491578947369,3.7319915789473685,5.180446315789474,3.7494031578947364,5.242762105263157,-1294.9219
52.0,1.0,212.0,5.79808,7.309275789473684,6.950542105263159,3.6641094736842104,6.089257894736843,3.5462873684210523,5.035648421052632,3.7198936842105264,5.126836842105263,-1293.9453
52.0,1.0,213.0,5.695377894736842,7.244258947368421,6.946833684210526,3.589962105263158,5.941530526315789,3.35696,4.969702105263158,3.679994736842105,5.098441052631579,-1292.9688
52.0,1.0,214.0,5.441195789473684,7.0440852631578945,6.812634736842105,3.638015789473684,5.755287368421053,3.2286031578947365,4.87024,3.673336842105263,5.073057894736842,-1291.9922
52.0,1.0,215.0,5.240546315789474,6.903743157894737,6.673637894736841,3.421178947368421,5.749243157894736,3.043537894736842,4.778392631578948,3.4589126315789476,4.831092631578947,-1291.0156
52.0,1.0,216.0,5.468324210526316,7.1291199999999995,6.995404210526316,3.6908168421052627,6.035931578947368,3.2421905263157895,5.03772,3.573942105263158,5.013251578947369,-1290.0391
52.0,1.0,217.0,5.699556842105263,7.378586315789473,7.229363157894737,3.8027357894736844,6.268277894736842,3.4976115789473683,5.269718947368421,3.708341052631579,5.199928421052632,-1289.0625
52.0,1.0,218.0,5.7028799999999995,7.32862947368421,7.108362105263158,3.4454557894736837,6.112375789473684,3.4694442105263157,5.022706315789474,3.6211326315789476,5.055565263157895,-1288.0859
52.0,1.0,219.0,5.540927368421053,7.152748421052632,6.939377894736842,3.015306315789474,5.889474736842105,3.370024210526316,4.763067368421052,3.480281052631579,4.928912631578947,-1287.1094
52.0,1.0,220.0,5.438262105263158,7.14419894736842,6.998947368421052,2.955244210526316,5.9821484210526314,3.348632631578947,4.811583157894737,3.485354736842105,4.988644210526315,-1286.1328
52.0,1.0,221.0,5.337874736842105,7.146223157894737,7.057614736842105,2.8888463157894737,5.907877894736843,3.3787357894736845,4.733852631578947,3.6711673684210524,4.903604210526316,-1285.1563
52.0,1.0,222.0,5.201688421052632,7.137152631578947,7.072613684210527,2.681044210526316,5.759714736842105,3.2807052631578943,4.751717894736842,3.7333221052631576,4.871052631578947,-1284.1797
52.0,1.0,223.0,5.267253684210526,7.184295789473684,7.12032947368421,2.4635526315789478,5.745190526315789,3.1348378947368425,4.813323157894737,3.704825263157895,4.917217894736843,-1283.2031
52.0,1.0,224.0,5.394773684210526,7.256804210526315,7.269906315789473,2.605258947368421,5.954371578947368,3.162347368421053,4.868580000000001,3.8850284210526316,5.019947368421052,-1282.2266
52.0,1.0,225.0,5.259657894736843,7.221692631578947,7.335922105263158,2.4824052631578946,5.988067368421053,3.025487368421053,4.885323157894737,3.7473105263157898,5.100768421052631,-1281.25
52.0,1.0,226.0,5.152041052631579,7.128117894736842,7.213026315789473,2.459050526315789,5.989407368421053,2.8984673684210525,4.924376842105263,3.5614947368421053,5.148247368421052,-1280.2734
52.0,1.0,227.0,5.0829273684210525,6.975173684210525,7.001993684210526,2.6514526315789473,5.792276842105263,2.726944210526316,4.684583157894736,3.39460947368421,5.006548421052631,-1279.2969
52.0,1.0,228.0,5.044185263157895,6.877785263157895,6.930567368421053,2.694773684210526,5.714407368421052,2.7055936842105264,4.586443157894737,3.3172673684210525,4.957148421052632,-1278.3203
52.0,1.0,229.0,5.072996842105264,6.854681052631579,6.8936168421052635,2.5167610526315793,5.73558,2.6556873684210527,4.599535789473684,3.301421052631579,4.8570284210526316,-1277.3438
52.0,1.0,230.0,5.1500778947368415,6.8603073684210525,6.905028421052632,2.5307221052631577,5.818229473684211,2.649157894736842,4.677103157894737,3.3848684210526314,4.791648421052631,-1276.3672
52.0,1.0,231.0,5.30072,6.981182105263158,7.055767368421053,2.891483157894737,5.688115789473684,2.8874505263157895,4.583291578947368,3.478147368421052,4.6447589473684205,-1275.3906
52.0,1.0,232.0,5.27841894736842,6.971294736842106,7.0429431578947375,3.000415789473684,5.292427368421053,3.059175789473684,4.3095,3.538492631578947,4.458027368421053,-1274.4141
52.0,1.0,233.0,5.066442105263158,6.830003157894736,6.8653231578947365,2.943414736842105,5.1537305263157895,2.889766315789474,4.166918947368421,3.403646315789474,4.426521052631579,-1273.4375
52.0,1.0,234.0,4.79114,6.654745263157895,6.653570526315789,2.8515863157894734,5.024683157894737,2.7459368421052637,4.030561052631579,3.2950273684210525,4.331934736842105,-1272.4609
52.0,1.0,235.0,4.880823157894737,6.686405263157894,6.626288421052632,3.0108957894736843,5.038606315789473,2.789502105263158,3.9336115789473687,3.2782936842105266,4.120426315789474,-1271.4844
52.0,1.0,236.0,4.825723157894736,6.622587368421053,6.441406315789473,2.878797894736842,4.828927368421052,2.7072084210526315,3.7387336842105268,3.1704536842105266,3.829276842105263,-1270.5078
52.0,1.0,237.0,4.701771578947368,6.456846315789473,6.208824210526315,2.4605431578947363,4.526948421052631,2.716891578947368,3.5176,3.025565263157895,3.5300442105263157,-1269.5313
52.0,1.0,238.0,4.846225263157894,6.490771578947368,6.212024210526316,2.343810526315789,4.627833684210526,3.0187347368421054,3.6926894736842106,3.015753684210526,3.4988105263157894,-1268.5547
52.0,1.0,239.0,4.865891578947369,6.5334084210526315,6.217844210526316,2.1708126315789475,4.651121052631579,3.1054,3.7847684210526316,2.9065842105263155,3.546884210526316,-1267.5781
52.0,1.0,240.0,4.871877894736842,6.547448421052632,6.304383157894736,2.0204915789473685,4.837748421052631,3.061095789473684,3.922146315789474,2.7912442105263158,3.547542105263158,-1266.6016
52.0,1.0,241.0,4.922475789473684,6.525444210526316,6.135156842105264,1.9264263157894734,4.923547368421053,2.888738947368421,3.83230947368421,2.5271757894736844,3.4212526315789473,-1265.625
52.0,1.0,242.0,5.122506315789474,6.707177894736842,6.1610115789473685,1.9433726315789475,5.043061052631579,2.8757063157894733,3.845964210526316,2.5017442105263155,3.4737526315789475,-1264.6484
52.0,1.0,243.0,5.589551578947368,7.215444210526316,6.60486947368421,2.5334442105263157,5.371152631578948,3.209376842105263,4.0806894736842105,2.8820189473684215,3.6306715789473687,-1263.6719
52.0,1.0,244.0,6.113134736842105,7.672546315789473,6.97154,3.332867368421052,5.71167052631579,3.5497368421052635,4.150612631578947,3.153887368421053,3.609794736842105,-1262.6953
52.0,1.0,245.0,6.304430526315789,7.8160263157894745,6.996777894736842,3.687027368421053,5.820701052631579,3.5639147368421056,4.051988421052632,3.059756842105263,3.501538947368421,-1261.7188
52.0,1.0,246.0,6.054011578947368,7.691284210526316,6.870946315789474,3.6804252631578946,5.588336842105264,3.2390999999999996,3.9100326315789475,2.7668368421052634,3.3175715789473688,-1260.7422
52.0,1.0,247.0,5.886562105263158,7.5957063157894735,6.829798947368421,3.5846452631578947,5.412372631578947,3.0538747368421055,3.696918947368421,2.60384,3.118836842105263,-1259.7656
52.0,1.0,248.0,5.969392631578947,7.731409473684211,7.012833684210526,3.5490631578947367,5.539461052631578,3.1038705263157897,3.836276842105263,2.690161052631579,3.2540473684210527,-1258.7891
52.0,1.0,249.0,6.078710526315789,7.795588421052632,7.094298947368421,3.8233652631578945,5.526318947368422,3.2771452631578946,3.866011578947368,2.806861052631579,3.2776294736842106,-1257.8125
52.0,1.0,250.0,6.065761052631579,7.825565263157894,7.052273684210526,3.992934736842105,5.317914736842106,3.3551978947368424,3.757473684210526,2.891838947368421,3.211388421052632,-1256.8359
52.0,1.0,251.0,5.891785263157895,7.610741052631579,6.847167368421053,3.7300168421052633,5.0375073684210525,3.1741410526315788,3.5092631578947366,2.897843157894737,3.0350315789473683,-1255.8594
52.0,1.0,252.0,5.481766315789473,7.180965263157894,6.4791105263157895,3.3419915789473684,4.7384663157894735,2.830182105263158,3.2017810526315786,2.5607294736842108,2.7168905263157894,-1254.8828
52.0,1.0,253.0,5.137642105263158,6.780010526315789,6.0861252631578955,3.209081052631579,4.507036842105263,2.5715694736842107,2.809457894736842,2.313937894736842,2.362432631578947,-1253.9063
52.0,1.0,254.0,5.141005263157894,6.692080000000001,5.9714831578947365,3.2706863157894737,4.475863157894737,2.694185263157895,2.7020094736842104,2.434663157894737,2.3377031578947367,-1252.9297
52.0,1.0,255.0,5.094643157894737,6.555237894736843,5.823697894736842,3.3218494736842104,4.491868421052632,2.7048547368421056,2.7717189473684214,2.5214578947368422,2.3317915789473687,-1251.9531
52.0,1.0,256.0,5.049649473684211,6.37930947368421,5.58337052631579,3.116121052631579,4.528764210526315,2.4335368421052634,2.8301726315789475,2.4393368421052632,2.214918947368421,-1250.9766
52.0,1.0,257.0,5.199145263157895,6.491728421052632,5.625876842105264,3.0067463157894734,4.850897894736843,2.3719357894736843,3.1441052631578947,2.393993684210526,2.376150526315789,-1250.0
52.0,1.0,258.0,5.050289473684211,6.399332631578948,5.636826315789474,2.920133684210526,4.951555789473685,2.338901052631579,3.1863978947368423,2.1248494736842103,2.474982105263158,-1249.0234
52.0,1.0,259.0,4.903036842105263,6.220114736842105,5.462867368421053,2.771471578947368,4.992968421052631,2.155941052631579,3.17918,1.8450652631578948,2.43272947368421,-1248.0469
52.0,1.0,260.0,5.0129673684210525,6.263434736842105,5.425062105263158,2.884578947368421,5.33214,2.1810157894736846,3.458826315789474,1.8692894736842107,2.562925263157895,-1247.0703
52.0,1.0,261.0,5.027102105263158,6.337461052631579,5.427062105263158,2.840717894736842,5.451414736842105,2.2131463157894737,3.6196168421052635,1.9075715789473684,2.571327368421053,-1246.0938
52.0,1.0,262.0,4.867744210526316,6.125383157894737,5.2435052631578944,2.524943157894737,5.295502105263158,2.0285726315789474,3.455842105263158,1.825276842105263,2.3995263157894735,-1245.1172
52.0,1.0,263.0,4.656731578947368,5.796303157894737,5.032174736842105,2.2088315789473683,5.202045263157895,1.9430494736842105,3.349816842105263,1.853201052631579,2.4045452631578947,-1244.1406
52.0,1.0,264.0,4.770187368421053,5.90842,5.170069473684211,2.4384442105263155,5.19768,2.111447368421053,3.4648305263157897,2.1615526315789473,2.519863157894737,-1243.1641
52.0,1.0,265.0,4.982426315789474,6.061065263157895,5.246535789473684,2.814685263157895,5.0063115789473684,2.1959105263157896,3.2543684210526314,2.2701094736842102,2.3693231578947374,-1242.1875
52.0,1.0,266.0,4.990348421052632,5.936843157894737,5.103523157894736,2.972165263157894,4.809101052631579,2.0617705263157893,2.9686810526315788,2.0924905263157894,2.066437894736842,-1241.2109
52.0,1.0,267.0,4.649995789473684,5.633811578947368,4.817196842105264,2.8431778947368422,4.526695789473685,1.8818463157894736,2.7184705263157896,1.9857063157894737,1.7667536842105267,-1240.2344
52.0,1.0,268.0,4.561222105263158,5.577470526315789,4.7049199999999995,2.877743157894737,4.572872631578948,1.9582263157894737,2.661413684210526,2.1078294736842103,1.7370631578947366,-1239.2578
52.0,1.0,269.0,4.523786315789474,5.629363157894737,4.781046315789474,3.032704210526316,4.6245431578947365,2.023751578947368,2.7411284210526317,2.155734736842105,1.9162989473684209,-1238.2813
52.0,1.0,270.0,4.618162105263158,5.665452631578947,4.822733684210526,3.106876842105263,4.416445263157895,2.1280252631578946,2.6474484210526317,2.198856842105263,1.9220884210526317,-1237.3047
52.0,1.0,271.0,4.627753684210526,5.628741052631579,4.663942105263158,3.1015147368421054,4.148933684210527,2.0753115789473684,2.356377894736842,2.200944210526316,1.6733021052631578,-1236.3281
52.0,1.0,272.0,4.544396842105263,5.638531578947368,4.6798515789473685,3.1174757894736844,4.213635789473685,2.1183052631578945,2.3718778947368424,2.457055789473684,1.6682547368421055,-1235.3516
52.0,1.0,273.0,4.577210526315789,5.651368421052632,4.747291578947369,3.433387368421053,4.327567368421053,2.399242105263158,2.619424210526316,2.671494736842105,1.907622105263158,-1234.375
52.0,1.0,274.0,4.642685263157895,5.641095789473684,4.67934,3.204885263157895,4.318003157894737,2.4772726315789475,2.577565263157895,2.649685263157895,1.871338947368421,-1233.3984
52.0,1.0,275.0,4.6290894736842105,5.598914736842105,4.603378947368421,2.957803157894737,4.157908421052632,2.3774631578947365,2.1839505263157895,2.6967294736842105,1.6978684210526318,-1232.4219
52.0,1.0,276.0,4.4780336842105255,5.513611578947368,4.5421000000000005,2.8326115789473683,3.9540273684210527,2.422535789473684,1.9648178947368418,2.8098536842105264,1.6265052631578947,-1231.4453
52.0,1.0,277.0,4.369797894736842,5.453133684210526,4.543652631578947,2.864318947368421,3.7559031578947373,2.3647168421052633,2.027636842105263,2.7855778947368424,1.6171663157894736,-1230.4688
52.0,1.0,278.0,4.271867368421053,5.425564210526315,4.591913684210526,2.7352515789473686,3.7608315789473683,2.215762105263158,2.1639189473684213,2.6736926315789473,1.6189726315789472,-1229.4922
52.0,1.0,279.0,4.511894736842105,5.570662105263158,4.687078947368421,2.7649652631578947,3.9382273684210527,2.1536494736842107,2.319381052631579,2.619135789473684,1.728382105263158,-1228.5156
52.0,1.0,280.0,4.97769052631579,5.894832631578947,4.832516842105263,3.0302136842105267,4.3362726315789475,2.127422105263158,2.484794736842105,2.676002105263158,1.8158315789473682,-1227.5391
52.0,1.0,281.0,5.41732,6.267123157894737,5.105657894736843,3.264236842105263,4.7527252631578945,2.429721052631579,2.7037621052631575,2.911935789473684,1.947876842105263,-1226.5625
52.0,1.0,282.0,5.782157894736843,6.601030526315789,5.49518,3.682154736842105,5.0338747368421055,2.799927368421053,3.0854442105263162,3.2639905263157893,2.3068463157894734,-1225.5859
52.0,1.0,283.0,5.829746315789474,6.694762105263157,5.5950999999999995,3.984586315789474,5.105733684210526,2.8642305263157897,3.243224210526316,3.3579726315789475,2.488845263157895,-1224.6094
52.0,1.0,284.0,5.735508421052631,6.727912631578947,5.68690947368421,4.022753684210526,4.990113684210526,2.9441736842105266,3.2279105263157897,3.2651694736842107,2.585923157894737,-1223.6328
52.0,1.0,285.0,5.679391578947368,6.7853631578947375,5.854941052631579,4.025552631578948,5.008107368421053,3.1083557894736846,3.4033263157894735,3.3247905263157893,2.8282473684210525,-1222.6563
52.0,1.0,286.0,5.648305263157895,6.873533684210526,5.966892631578947,4.137113684210527,4.916354736842105,3.175302105263158,3.47888,3.5057557894736844,2.8278884210526316,-1221.6797
52.0,1.0,287.0,5.580370526315789,6.816834736842105,5.876795789473684,4.263768421052632,4.856875789473684,3.273524210526316,3.4414368421052632,3.5925126315789475,2.7927642105263155,-1220.7031
52.0,1.0,288.0,5.500818947368422,6.7290989473684215,5.791671578947368,4.321218947368421,4.682435789473684,3.370101052631579,3.3363894736842106,3.647907368421053,2.78997052631579,-1219.7266
52.0,1.0,289.0,5.548977894736843,6.668283157894737,5.743173684210526,4.095503157894737,4.654957894736842,3.291288421052631,3.336278947368421,3.58376,2.892104210526316,-1218.75
52.0,1.0,290.0,5.791531578947369,6.7538210526315785,5.742536842105264,4.109146315789474,4.823911578947369,3.1999242105263157,3.3563305263157894,3.629551578947368,3.0075147368421056,-1217.7734
52.0,1.0,291.0,6.000304210526316,6.889712631578948,5.821171578947369,4.23738,5.1206778947368425,3.3286231578947367,3.515348421052632,3.8373768421052628,3.1643242105263156,-1216.7969
52.0,1.0,292.0,6.1400694736842105,6.946886315789474,5.752741052631579,4.2539,5.206976842105263,3.4979105263157897,3.590395789473684,3.876773684210526,3.164383157894737,-1215.8203
52.0,1.0,293.0,6.2750705263157895,7.047943157894737,5.868817894736842,4.265415789473684,5.466827368421053,3.5959326315789477,3.86194,3.9580926315789475,3.454248421052631,-1214.8438
52.0,1.0,294.0,6.474825263157895,7.2622873684210525,6.260365263157895,4.466271578947368,5.794782105263157,3.916422105263158,4.245610526315789,4.462392631578948,3.967445263157895,-1213.8672
52.0,1.0,295.0,6.732204210526316,7.5847884210526315,6.625572631578947,4.790254736842106,5.991797894736843,4.396154736842106,4.464612631578947,5.069403157894737,4.325228421052632,-1212.8906
52.0,1.0,296.0,6.342835789473684,7.315858947368421,6.458774736842106,4.531987368421053,5.8237810526315785,4.221314736842105,4.437983157894737,5.11752947368421,4.263510526315789,-1211.9141
52.0,1.0,297.0,6.1632421052631585,7.213329473684211,6.4043010526315785,4.478763157894737,5.6753484210526315,4.135636842105263,4.4409094736842105,5.120497894736842,4.276788421052632,-1210.9375
52.0,1.0,298.0,6.161734736842106,7.225798947368421,6.317221052631578,4.394492631578948,5.778117894736842,3.9573536842105264,4.656207368421053,4.8799557894736845,4.348933684210526,-1209.9609
52.0,1.0,299.0,6.150002105263157,7.254472631578947,6.356015789473684,4.476388421052631,5.942582105263158,3.903571578947368,4.810762105263158,4.736181052631579,4.4187157894736835,-1208.9844
52.0,1.0,300.0,6.181702105263158,7.3376600000000005,6.460273684210526,4.76782,6.096376842105263,4.247591578947369,4.931570526315789,4.910134736842105,4.5520463157894735,-1208.0078
52.0,1.0,301.0,6.259428421052632,7.335186315789474,6.4459136842105265,5.006277894736843,6.02398947368421,4.516572631578947,4.832834736842106,4.990538947368421,4.523165263157894,-1207.0313
52.0,1.0,302.0,6.29107052631579,7.266876842105263,6.331425263157895,5.033673684210526,5.902416842105263,4.3916663157894735,4.679025263157895,4.815877894736842,4.3398631578947375,-1206.0547
52.0,1.0,303.0,6.1963336842105265,7.123521052631579,6.17644,4.833942105263158,5.7706252631578945,4.322205263157894,4.597446315789473,4.592501052631579,4.20452947368421,-1205.0781
52.0,1.0,304.0,5.918243157894738,6.903161052631579,6.005892631578948,4.658413684210526,5.755368421052632,4.281555789473684,4.686951578947369,4.351341052631579,4.229151578947369,-1204.1016
52.0,1.0,305.0,5.608957894736842,6.591643157894737,5.764431578947368,3.9937400000000003,5.706425263157895,4.070701052631579,4.575111578947369,4.170476842105263,4.156068421052631,-1203.125
52.0,1.0,306.0,5.4552663157894745,6.440163157894737,5.769204210526316,3.6231242105263157,5.555494736842106,4.098337894736842,4.439776842105263,4.262943157894737,4.1870863157894735,-1202.1484
52.0,1.0,307.0,5.395837894736842,6.385242105263157,5.803911578947369,3.662808421052632,5.527574736842105,4.088491578947369,4.385873684210527,4.339144210526316,4.114576842105263,-1201.1719
52.0,1.0,308.0,5.1049494736842105,6.190327368421053,5.669365263157895,3.2263957894736843,5.4815,3.757143157894737,4.26388,4.025594736842105,4.001010526315789,-1200.1953
52.0,1.0,309.0,4.78058,5.999836842105263,5.496178947368421,2.8693673684210528,5.128462105263158,3.520621052631579,4.005843157894737,3.7283,3.850166315789474,-1199.2188
52.0,1.0,310.0,4.757051578947368,6.07598105263158,5.608045263157895,2.932332631578947,5.015383157894736,3.619486315789474,3.9646947368421053,3.844562105263158,3.850353684210526,-1198.2422
52.0,1.0,311.0,4.7956357894736845,6.0988568421052625,5.69678947368421,3.0003094736842106,5.106878947368421,3.505864210526316,4.139415789473684,3.8301463157894737,3.987923157894737,-1197.2656
52.0,1.0,312.0,4.781318947368421,6.001526315789474,5.575070526315789,3.2168178947368418,5.1110147368421055,3.3414694736842105,4.1357294736842105,3.6898610526315787,3.821578947368421,-1196.2891
52.0,1.0,313.0,4.789274736842105,5.996176842105263,5.545636842105264,3.335181052631579,5.249377894736842,3.313895789473684,4.125915789473684,3.6664778947368424,3.807784210526316,-1195.3125
52.0,1.0,314.0,4.730821052631579,5.950330526315789,5.52768,3.193454736842105,5.370582105263158,3.139902105263158,4.166949473684211,3.5746800000000003,3.8930515789473685,-1194.3359
52.0,1.0,315.0,4.771594736842105,5.964924210526316,5.5788557894736845,2.9977389473684215,5.2926589473684205,3.058152631578947,4.08172,3.661465263157895,3.8560452631578945,-1193.3594
52.0,1.0,316.0,4.8866736842105265,5.974468421052631,5.521665263157895,3.021857894736842,5.278369473684211,3.0049357894736843,3.8983052631578947,3.7085189473684212,3.711286315789474,-1192.3828
52.0,1.0,317.0,5.000597894736842,6.07182,5.6140757894736835,3.1387515789473683,5.351205263157895,3.0553126315789476,4.010051578947368,3.8045136842105265,3.7902189473684205,-1191.4063
52.0,1.0,318.0,4.834862105263158,6.002648421052631,5.624324210526315,3.1452031578947373,5.067538947368421,3.015405263157895,3.9585757894736844,3.826241052631579,3.8332526315789472,-1190.4297
52.0,1.0,319.0,4.5279884210526316,5.783267368421052,5.38878,2.6051547368421053,4.440577894736842,2.714658947368421,3.5541199999999997,3.3711,3.5943778947368417,-1189.4531
52.0,1.0,320.0,4.2657063157894735,5.589991578947369,5.1880810526315795,1.9257768421052632,4.129211578947369,2.443638947368421,3.2570094736842106,3.057064210526316,3.395044210526316,-1188.4766
52.0,1.0,321.0,3.994547368421052,5.429228421052632,5.04949052631579,1.771515789473684,3.9716873684210525,2.3748052631578944,3.071078947368421,2.9915799999999995,3.2968873684210527,-1187.5
52.0,1.0,322.0,3.747757894736842,5.256541052631579,4.883447368421053,1.7008431578947367,3.811456842105263,2.068904210526316,2.99652,2.7786747368421056,3.2619473684210525,-1186.5234
52.0,1.0,323.0,3.8662315789473687,5.321476842105263,4.998576842105263,2.0518147368421054,3.9033410526315793,2.2103473684210524,3.2220631578947367,2.9337842105263157,3.4719789473684215,-1185.5469
52.0,1.0,324.0,3.9127968421052635,5.450124210526316,5.179648421052631,2.38254,4.004755789473684,2.474168421052632,3.336831578947369,3.1165178947368424,3.583514736842105,-1184.5703
52.0,1.0,325.0,4.004485263157895,5.462132631578948,5.159917894736842,2.477561052631579,4.0658042105263155,2.4481536842105265,3.2543115789473687,3.0909168421052633,3.5683473684210525,-1183.5938
52.0,1.0,326.0,4.304904210526315,5.543413684210526,5.095643157894736,2.476308421052632,4.345403157894737,2.437156842105263,3.3532410526315792,3.071230526315789,3.580266315789474,-1182.6172
52.0,1.0,327.0,4.692505263157895,5.848390526315789,5.257001052631579,2.4859863157894737,4.812356842105263,2.5371673684210525,3.620677894736842,3.0501905263157894,3.643795789473684,-1181.6406
52.0,1.0,328.0,4.89928,5.932428421052632,5.405798947368421,2.532303157894737,5.088633684210526,2.588462105263158,3.7018505263157895,3.0937263157894734,3.722838947368421,-1180.6641
52.0,1.0,329.0,5.14481052631579,6.054896842105263,5.444463157894737,2.671583157894737,5.202726315789474,2.741155789473684,3.6417115789473686,3.1145989473684215,3.6768157894736837,-1179.6875
52.0,1.0,330.0,5.607673684210527,6.312668421052631,5.543548421052632,2.971895789473684,5.480345263157894,3.011350526315789,3.800664210526316,3.3320936842105264,3.758355789473684,-1178.7109
52.0,1.0,331.0,5.987552631578947,6.613288421052631,5.759675789473684,3.230629473684211,5.763450526315789,3.147203157894737,3.9762957894736846,3.5143536842105267,3.897646315789474,-1177.7344
52.0,1.0,332.0,6.017429473684211,6.640466315789474,5.749566315789473,3.2518547368421054,5.9105957894736845,2.979518947368421,4.035481052631579,3.352768421052631,3.7183821052631583,-1176.7578
52.0,1.0,333.0,5.844924210526315,6.53566,5.589551578947368,2.989778947368421,5.8076915789473675,2.750341052631579,3.8852031578947366,3.0864042105263154,3.3546715789473684,-1175.7813
52.0,1.0,334.0,5.669683157894737,6.482697894736843,5.540924210526316,2.7096010526315792,5.713063157894736,2.6642021052631577,3.766817894736842,2.968806315789474,3.2704968421052634,-1174.8047
52.0,1.0,335.0,5.560132631578947,6.462814736842105,5.638604210526316,2.858091578947368,5.581601052631579,2.659328421052632,3.7224905263157892,3.0159347368421052,3.365455789473684,-1173.8281
52.0,1.0,336.0,5.476555789473684,6.451410526315789,5.712054736842106,3.135910526315789,5.378767368421053,2.803261052631579,3.6146494736842105,3.139074736842105,3.388022105263158,-1172.8516
52.0,1.0,337.0,5.455162105263158,6.447564210526315,5.790368421052632,3.333272631578948,5.3742094736842105,2.899337894736842,3.5635652631578947,3.233605263157895,3.404386315789474,-1171.875
52.0,1.0,338.0,5.551862105263158,6.538834736842105,5.9254105263157895,3.4310157894736846,5.567283157894736,3.1710273684210524,3.6974936842105266,3.2807894736842105,3.4600326315789474,-1170.8984
52.0,1.0,339.0,5.565355789473684,6.58364947368421,6.023832631578947,3.450104210526316,5.635662105263157,3.1833147368421053,3.781576842105263,3.2841136842105265,3.507057894736842,-1169.9219
52.0,1.0,340.0,5.611813684210526,6.695557894736842,6.135255789473684,3.52477052631579,5.603334736842106,3.2594347368421053,3.909345263157895,3.5094905263157896,3.662855789473684,-1168.9453
52.0,1.0,341.0,5.596308421052632,6.72216947368421,6.119508421052632,3.4856242105263155,5.489578947368421,3.307763157894737,3.96516,3.586155789473684,3.7278000000000002,-1167.9688
52.0,1.0,342.0,5.4847,6.658636842105263,6.085193684210526,3.2725326315789474,5.369101052631579,3.2943378947368425,3.9038863157894736,3.4985242105263157,3.5863147368421053,-1166.9922
52.0,1.0,343.0,5.330125263157894,6.635667368421052,6.139207368421053,3.1996221052631575,5.319026315789474,3.2472421052631577,3.8533378947368417,3.3011105263157896,3.547891578947368,-1166.0156
52.0,1.0,344.0,5.269117894736842,6.700205263157895,6.233872631578947,3.1681094736842104,5.441704210526316,3.3167884210526317,3.9995052631578947,3.2831410526315787,3.73534,-1165.0391
52.0,1.0,345.0,5.370063157894737,6.832175789473684,6.3008463157894745,3.152484210526316,5.519378947368421,3.4374094736842107,4.2189031578947365,3.363732631578947,3.8759442105263155,-1164.0625
52.0,1.0,346.0,5.574445263157895,6.94328105263158,6.3695200000000005,3.4426547368421048,5.652134736842106,3.4924631578947367,4.328096842105263,3.3502494736842108,3.8336315789473683,-1163.0859
52.0,1.0,347.0,5.407088421052632,6.704568421052631,6.168263157894737,3.410705263157895,5.516568421052631,3.243404210526316,4.194455789473684,3.1674336842105264,3.6221536842105264,-1162.1094
52.0,1.0,348.0,4.948081052631579,6.236397894736842,5.850433684210526,2.9162947368421053,5.221025263157895,2.7143263157894735,3.9262557894736845,2.876944210526316,3.419409473684211,-1161.1328
52.0,1.0,349.0,4.9441263157894735,6.225196842105263,5.787233684210526,2.5948515789473685,5.6211126315789475,2.3700905263157894,3.9778252631578948,2.6884326315789475,3.3408726315789474,-1160.1563
52.0,1.0,350.0,5.0053831578947365,6.226904210526316,5.651256842105264,2.225044210526316,5.863137894736842,2.255612631578947,3.904264210526316,2.4739452631578946,3.1425547368421056,-1159.1797
52.0,1.0,351.0,5.004821052631579,6.166869473684211,5.590719999999999,2.2072652631578946,5.862203157894737,2.2512,3.769394736842105,2.4388873684210526,3.1088905263157898,-1158.2031
52.0,1.0,352.0,4.809312631578948,5.915108421052631,5.412569473684211,2.074795789473684,5.573982105263157,2.023161052631579,3.610238947368421,2.221798947368421,3.050884210526316,-1157.2266
52.0,1.0,353.0,4.257803157894736,5.45162,5.140217894736842,1.8471663157894735,5.1233547368421055,1.718882105263158,3.403390526315789,1.9521410526315788,2.950743157894737,-1156.25
52.0,1.0,354.0,3.8302768421052633,5.13952,4.881502105263158,1.5372336842105265,4.76654,1.5739263157894736,3.2081473684210526,1.7991168421052632,2.8262084210526317,-1155.2734
52.0,1.0,355.0,3.6290652631578943,4.838618947368421,4.54251894736842,1.1767336842105265,4.418947368421053,1.5360905263157894,2.9287294736842107,1.6098778947368422,2.583857894736842,-1154.2969
52.0,1.0,356.0,3.31604,4.416627368421053,4.089088421052631,1.0380368421052633,3.89665052631579,1.3085484210526317,2.3727642105263156,1.590334736842105,2.055681052631579,-1153.3203
52.0,1.0,357.0,2.9662273684210527,4.064727368421052,3.6625452631578947,0.6344873684210526,3.5835547368421055,0.9557926315789474,2.072903157894737,1.3228126315789475,1.6650936842105262,-1152.3438
52.0,1.0,358.0,2.8179389473684213,3.916787368421053,3.444209473684211,0.4322610526315791,3.478384210526316,0.8235915789473683,1.9417505263157893,1.0816505263157894,1.475304210526316,-1151.3672
52.0,1.0,359.0,2.911068421052631,4.006514736842105,3.469193684210526,0.9557294736842108,3.4621999999999997,1.1273578947368421,1.7780873684210525,1.340964210526316,1.346196842105263,-1150.3906
52.0,1.0,360.0,2.896715789473684,4.057943157894736,3.511958947368421,1.3735073684210528,3.3353610526315793,1.4804031578947368,1.5747578947368421,1.7810242105263157,1.3076631578947369,-1149.4141
52.0,1.0,361.0,2.998105263157895,4.154396842105263,3.540822105263158,1.5425694736842106,3.4948463157894736,1.704103157894737,1.5899515789473684,1.926938947368421,1.3091799999999998,-1148.4375
52.0,1.0,362.0,3.1017242105263154,4.219907368421053,3.564881052631579,1.6225789473684211,3.76229052631579,1.734764210526316,1.7912263157894739,1.8361442105263157,1.4294063157894736,-1147.4609
52.0,1.0,363.0,3.2842063157894734,4.284722105263158,3.49124,1.7630842105263158,3.8041147368421053,1.823837894736842,1.6965368421052631,1.8245652631578946,1.2436747368421053,-1146.4844
52.0,1.0,364.0,3.425921052631579,4.320093684210526,3.465428421052632,1.8821768421052634,3.6849442105263157,1.8936642105263157,1.5719484210526318,1.8592894736842107,1.1826621052631578,-1145.5078
52.0,1.0,365.0,3.4309810526315787,4.172636842105263,3.372638947368421,1.8517800000000002,3.4089694736842104,1.7236115789473685,1.345861052631579,1.703841052631579,1.048762105263158,-1144.5313
52.0,1.0,366.0,3.5570557894736843,4.25392,3.4638747368421052,1.91086,3.4520578947368423,1.9312315789473686,1.4386863157894736,1.7814926315789474,1.1034473684210526,-1143.5547
52.0,1.0,367.0,3.80294,4.480986315789473,3.6779126315789474,1.9688273684210527,3.653786315789474,2.1545157894736837,1.6588526315789474,1.9754494736842105,1.3078705263157895,-1142.5781
52.0,1.0,368.0,4.064466315789474,4.698265263157895,3.7557010526315793,1.9878052631578946,3.79948,2.239173684210526,1.827842105263158,2.1559357894736846,1.3922052631578947,-1141.6016
52.0,1.0,369.0,4.262152631578947,4.93616,3.9411536842105264,2.1046894736842106,4.072548421052631,2.3716936842105265,2.071206315789474,2.2791694736842105,1.5743989473684208,-1140.625
52.0,1.0,370.0,4.510295789473684,5.0373,4.009507368421053,2.036038947368421,4.3630894736842105,2.410384210526316,2.289855789473684,2.3293894736842105,1.7607884210526317,-1139.6484
52.0,1.0,371.0,4.856314736842105,5.381549473684211,4.2805136842105265,2.220107368421053,4.751091578947369,2.579865263157895,2.6013273684210527,2.600955789473684,2.04468,-1138.6719
52.0,1.0,372.0,5.13382,5.713355789473685,4.650596842105263,2.4066168421052634,5.239246315789474,2.8645505263157895,2.972128421052632,2.912687368421053,2.3321978947368422,-1137.6953
52.0,1.0,373.0,4.999208421052631,5.682236842105263,4.641489473684211,2.0392073684210525,5.202063157894737,2.754137894736842,2.9363126315789474,2.937474736842105,2.2530115789473686,-1136.7188
52.0,1.0,374.0,4.905091578947369,5.647494736842106,4.5741852631578945,1.6476136842105265,4.827384210526316,2.6602978947368423,2.6117315789473685,2.870071578947369,2.0070336842105263,-1135.7422
52.0,1.0,375.0,4.877255789473684,5.639897894736842,4.521576842105263,1.6895810526315789,4.579496842105263,2.8511210526315787,2.392938947368421,2.8596063157894736,1.8509421052631578,-1134.7656
52.0,1.0,376.0,4.7374052631578945,5.524954736842105,4.400788421052631,1.797029473684211,4.399395789473685,2.8137063157894735,2.3469663157894733,2.762487368421053,1.7996231578947368,-1133.7891
52.0,1.0,377.0,4.5670673684210525,5.470381052631579,4.482604210526316,1.7411242105263158,4.308995789473684,2.7600389473684213,2.3847705263157897,2.735344210526316,1.8908884210526316,-1132.8125
52.0,1.0,378.0,4.61472,5.54529052631579,4.653136842105263,1.5978852631578946,4.394655789473684,2.7157747368421052,2.6068515789473685,2.8796484210526314,2.181431578947368,-1131.8359
52.0,1.0,379.0,5.074738947368421,5.965184210526315,5.100948421052632,1.9393473684210527,4.732355789473684,3.018154736842105,2.8988273684210526,3.190743157894737,2.5129515789473684,-1130.8594
52.0,1.0,380.0,5.4333252631578945,6.374316842105263,5.549334736842105,2.2731736842105263,5.081824210526316,3.4280052631578948,3.2216252631578945,3.5214010526315787,2.8247400000000003,-1129.8828
52.0,1.0,381.0,5.456336842105263,6.38871052631579,5.620683157894738,2.6420189473684212,5.216818947368421,3.6028989473684208,3.3975242105263157,3.634658947368421,2.9227305263157897,-1128.9063
52.0,1.0,382.0,5.566424210526316,6.389014736842106,5.569225263157895,3.038884210526316,5.351594736842105,3.6649610526315786,3.4063505263157894,3.7348157894736844,2.773109473684211,-1127.9297
52.0,1.0,383.0,5.577417894736842,6.4073126315789475,5.573451578947368,3.318216842105263,5.252357894736842,3.808858947368421,3.341533684210526,3.7587442105263156,2.7597652631578944,-1126.9531
52.0,1.0,384.0,5.239234736842105,6.181255789473684,5.475009473684211,3.2247505263157894,4.80372947368421,3.758983157894737,3.1991042105263157,3.7645505263157895,2.8451242105263157,-1125.9766
52.0,1.0,385.0,4.996103157894737,6.090377894736842,5.510248421052632,3.039455789473684,4.513515789473684,3.7121157894736845,3.092087368421052,3.817905263157895,2.908687368421053,-1125.0
52.0,1.0,386.0,4.869793684210526,6.0780431578947365,5.503781052631579,3.1019200000000002,4.368682105263158,3.7325715789473684,3.017247368421053,3.8539494736842106,2.982401052631579,-1124.0234
52.0,1.0,387.0,4.756581052631579,5.995070526315789,5.432777894736842,3.100724210526316,4.358718947368422,3.6953694736842104,3.0020010526315795,3.8715652631578945,2.988506315789474,-1123.0469
52.0,1.0,388.0,4.649581052631579,5.953584210526316,5.363407368421052,3.023713684210526,4.481988421052631,3.6956242105263155,3.180174736842105,4.029167368421052,3.082750526315789,-1122.0703
52.0,1.0,389.0,4.805582105263158,6.0441400000000005,5.426153684210527,3.2221684210526313,4.659832631578947,3.9162305263157893,3.3120284210526316,4.195696842105264,3.19792,-1121.0938
52.0,1.0,390.0,4.773456842105263,5.976737894736843,5.416676842105263,3.278950526315789,4.60642,3.9960168421052633,3.4001315789473683,4.198851578947369,3.3655042105263155,-1120.1172
52.0,1.0,391.0,4.518473684210527,5.6160463157894736,5.017915789473684,2.9561905263157895,4.335664210526316,3.8080515789473686,3.27077052631579,3.91472,3.2895505263157894,-1119.1406
52.0,1.0,392.0,4.146897894736842,5.190476842105263,4.58433052631579,2.5961905263157896,4.018087368421052,3.324424210526316,3.023449473684211,3.6730452631578947,3.051721052631579,-1118.1641
52.0,1.0,393.0,3.6458757894736844,4.715568421052631,4.227894736842106,2.240898947368421,3.6279873684210524,2.8904231578947366,2.700873684210526,3.357175789473684,2.8112399999999997,-1117.1875
52.0,1.0,394.0,3.3656336842105263,4.4465084210526316,4.0232399999999995,2.013346315789474,3.6371389473684212,2.771418947368421,2.654898947368421,3.302322105263158,2.7597336842105267,-1116.2109
52.0,1.0,395.0,3.2848800000000002,4.346227368421053,3.9111357894736845,1.9990231578947373,3.7261189473684206,2.6780736842105264,2.7130947368421054,3.329849473684211,2.79726947368421,-1115.2344
52.0,1.0,396.0,3.2237642105263156,4.281993684210526,3.81736,1.9828452631578946,3.621468421052631,2.507875789473684,2.672234736842105,3.0617526315789476,2.7378821052631577,-1114.2578
52.0,1.0,397.0,3.0990705263157894,4.096964210526316,3.58158,1.9703978947368421,3.4432105263157897,2.421718947368421,2.5325852631578947,2.77562,2.620261052631579,-1113.2813
52.0,1.0,398.0,2.9552810526315794,3.9511315789473684,3.39242,1.9312905263157896,3.353005263157895,2.2813136842105264,2.6359368421052634,2.6413231578947367,2.7897947368421057,-1112.3047
52.0,1.0,399.0,3.0400515789473683,4.128275789473684,3.5104115789473687,2.341249473684211,3.2778210526315794,2.442681052631579,2.8419884210526316,2.671227368421053,3.107881052631579,-1111.3281
52.0,1.0,400.0,3.1145084210526313,4.2970694736842105,3.6789084210526317,2.5402768421052633,3.404481052631579,2.535611578947368,2.988415789473684,2.7539778947368423,3.2977473684210525,-1110.3516
52.0,1.0,401.0,3.1418842105263156,4.3070589473684215,3.741283157894737,2.426822105263158,3.567514736842105,2.502942105263158,3.11506,2.9221000000000004,3.2327263157894737,-1109.375
52.0,1.0,402.0,3.2008747368421053,4.360152631578948,3.7751936842105263,2.311224210526316,3.743021052631579,2.6071,3.1329231578947367,3.0385336842105266,3.1706747368421055,-1108.3984
52.0,1.0,403.0,3.4869768421052627,4.58031052631579,4.053354736842105,2.610006315789474,3.959126315789474,2.7825115789473682,3.148698947368421,3.324084210526316,3.3336231578947366,-1107.4219
52.0,1.0,404.0,3.835476842105263,4.852758947368421,4.308985263157895,2.830877894736842,4.154517894736842,2.9858578947368426,3.13808,3.6063505263157896,3.4376652631578946,-1106.4453
52.0,1.0,405.0,3.717669473684211,4.848187368421052,4.343641052631579,2.645981052631579,4.272017894736842,3.1419652631578945,3.287204210526316,3.6171126315789475,3.589374736842105,-1105.4688
52.0,1.0,406.0,3.649145263157895,4.855487368421053,4.529916842105263,2.5262231578947367,4.447367368421053,3.2625136842105267,3.562141052631579,3.685197894736842,3.863507368421052,-1104.4922
52.0,1.0,407.0,3.57864,4.794985263157894,4.556371578947369,2.3219936842105264,4.31608,3.11790947368421,3.4144863157894734,3.4722094736842104,3.741866315789474,-1103.5156
52.0,1.0,408.0,3.6502221052631576,4.93507052631579,4.624467368421053,2.1824442105263158,4.1045610526315786,3.1098999999999997,3.259342105263158,3.360268421052632,3.6916115789473687,-1102.5391
52.0,1.0,409.0,3.8296526315789476,5.081741052631579,4.6961589473684215,2.3454463157894736,3.9890705263157895,3.3860831578947366,3.1829684210526317,3.494738947368421,3.724791578947368,-1101.5625
52.0,1.0,410.0,3.995262105263158,5.139949473684211,4.775117894736842,2.682156842105263,3.924623157894737,3.7567515789473687,2.95688,3.7554263157894736,3.6054273684210525,-1100.5859
52.0,1.0,411.0,4.212494736842105,5.37003894736842,5.028965263157894,2.9501094736842104,4.126162105263157,3.9952452631578947,2.990192631578947,3.972044210526316,3.6516252631578947,-1099.6094
52.0,1.0,412.0,4.419944210526316,5.567255789473683,5.134634736842106,2.7190568421052634,4.4054863157894735,4.033472631578947,3.068602105263158,4.126731578947369,3.669497894736842,-1098.6328
52.0,1.0,413.0,4.340976842105262,5.504310526315789,5.082476842105263,2.352835789473684,4.358256842105264,3.9672778947368417,3.1177505263157896,4.142622105263158,3.5602884210526313,-1097.6563
52.0,1.0,414.0,4.260431578947368,5.470863157894737,5.067798947368421,2.260404210526316,4.04205052631579,4.025203157894737,2.98649052631579,4.242815789473684,3.423632631578948,-1096.6797
52.0,1.0,415.0,4.282111578947368,5.521124210526316,5.022015789473684,2.109676842105263,3.812704210526316,4.030042105263158,2.722427368421053,4.417765263157895,3.307867368421053,-1095.7031
52.0,1.0,416.0,4.3038063157894735,5.559546315789473,5.126065263157895,1.95854,3.665914736842105,4.004803157894737,2.657295789473684,4.452117894736842,3.3881715789473685,-1094.7266
52.0,1.0,417.0,4.258021052631579,5.492594736842106,5.016778947368421,1.8216568421052628,3.5029336842105265,3.994074736842105,2.5303578947368424,4.431610526315789,3.208664210526316,-1093.75
52.0,1.0,418.0,4.210189473684211,5.290678947368422,4.806163157894737,1.5477505263157896,3.2068399999999997,3.7361326315789474,2.124438947368421,4.137774736842105,2.8364336842105264,-1092.7734
52.0,1.0,419.0,4.266157894736843,5.253511578947369,4.839071578947368,1.6328652631578944,3.1497842105263163,3.5037347368421052,2.133936842105263,3.9107073684210527,2.7156494736842105,-1091.7969
52.0,1.0,420.0,4.428143157894737,5.389982105263158,4.988298947368421,1.8105557894736843,3.3696778947368418,3.600577894736842,2.294243157894737,3.9460694736842106,2.856385263157895,-1090.8203
52.0,1.0,421.0,4.503318947368421,5.46749052631579,5.055041052631579,1.850018947368421,3.4855347368421055,3.7196736842105267,2.3927578947368424,4.113788421052631,2.879229473684211,-1089.8438
52.0,1.0,422.0,4.622437894736842,5.604263157894737,5.196182105263158,1.9101484210526316,3.7148084210526315,3.923907368421053,2.550482105263158,4.319381052631579,2.9562221052631577,-1088.8672
52.0,1.0,423.0,4.6657905263157895,5.61944947368421,5.2193736842105265,1.830125263157895,4.004094736842105,4.0619621052631585,2.6875736842105264,4.318503157894736,3.0181031578947373,-1087.8906
52.0,1.0,424.0,4.740868421052632,5.555108421052631,5.164148421052632,1.5249,4.140308421052631,3.9887536842105265,2.689463157894737,4.223483157894737,2.9656252631578948,-1086.9141
52.0,1.0,425.0,4.78316,5.523546315789473,5.04318,1.1987221052631578,4.307915789473684,3.98056947368421,2.726573684210526,4.256683157894737,2.9465000000000003,-1085.9375
52.0,1.0,426.0,4.8685326315789474,5.641118947368421,5.121471578947369,1.2402484210526317,4.585825263157894,4.153392631578948,2.972505263157895,4.43136947368421,3.163567368421053,-1084.9609
52.0,1.0,427.0,4.692562105263158,5.571597894736842,5.006368421052632,1.5180368421052632,4.5277357894736845,4.11874947368421,2.9779505263157895,4.213832631578947,3.1725494736842106,-1083.9844
52.0,1.0,428.0,4.569473684210527,5.437096842105262,4.797621052631579,1.5811189473684213,4.2955347368421055,3.885504210526316,2.771351578947369,3.928518947368421,2.9789347368421053,-1083.0078
52.0,1.0,429.0,4.618473684210526,5.391192631578947,4.74095052631579,1.4982978947368422,4.278981052631579,3.740778947368421,2.7484726315789474,3.9441642105263157,2.9877599999999997,-1082.0313
52.0,1.0,430.0,4.392124210526315,5.214185263157895,4.537418947368421,1.3364284210526314,4.0154347368421055,3.652857894736842,2.6014873684210524,3.834935789473684,2.901777894736842,-1081.0547
52.0,1.0,431.0,3.8211968421052633,4.753804210526316,4.066503157894737,1.0181915789473683,3.4682884210526312,3.4124473684210526,2.197036842105263,3.551495789473684,2.4940936842105264,-1080.0781
52.0,1.0,432.0,3.42712,4.290587368421052,3.681986315789474,0.8998715789473684,3.0483442105263157,3.101536842105263,1.7821631578947368,3.162441052631579,2.17162,-1079.1016
52.0,1.0,433.0,3.3015326315789473,4.10196,3.527455789473684,0.8608768421052633,2.9772884210526316,2.997076842105263,1.6904442105263158,2.9714463157894735,2.129998947368421,-1078.125
52.0,1.0,434.0,3.2070042105263155,4.027112631578947,3.553997894736842,0.730073684210526,3.0424042105263154,2.8361894736842106,1.8798031578947367,2.9307452631578945,2.338868421052632,-1077.1484
52.0,1.0,435.0,2.9022073684210525,3.802781052631579,3.427837894736842,0.4566642105263158,2.9262273684210527,2.5349842105263156,1.845238947368421,2.745827368421053,2.353738947368421,-1076.1719
52.0,1.0,436.0,2.8489168421052633,3.6777273684210523,3.304769473684211,0.4353484210526315,2.900678947368421,2.4553073684210527,1.862035789473684,2.5915473684210526,2.21346,-1075.1953
52.0,1.0,437.0,2.785706315789474,3.5417642105263156,3.1023715789473685,0.2979326315789474,2.909933684210526,2.366984210526316,1.7448757894736844,2.4425484210526314,2.0650715789473684,-1074.2188
52.0,1.0,438.0,2.47154,3.2594621052631574,2.894634736842106,0.013044210526315905,2.8042852631578947,2.0408399999999998,1.7616884210526316,2.101597894736842,2.1022305263157897,-1073.2422
52.0,1.0,439.0,2.3461347368421053,3.1720568421052637,2.832963157894737,-0.12346105263157872,2.8650715789473686,1.8705073684210527,1.9216947368421053,1.9271821052631577,2.1525484210526318,-1072.2656
52.0,1.0,440.0,2.440794736842105,3.234398947368421,2.9113252631578947,-0.1431294736842105,3.050025263157895,1.848521052631579,1.9691042105263157,1.9730694736842105,2.14628,-1071.2891
52.0,1.0,441.0,2.5375368421052635,3.3044547368421053,2.877257894736842,0.03586736842105277,3.0843663157894743,1.7190326315789473,1.9953294736842107,1.9058073684210524,2.115649473684211,-1070.3125
52.0,1.0,442.0,2.6943105263157894,3.3715315789473683,2.8691210526315793,0.20188842105263166,3.073142105263158,1.763582105263158,1.9624536842105262,1.8215631578947367,2.0400705263157892,-1069.3359
52.0,1.0,443.0,3.032998947368421,3.638741052631579,3.083472631578947,0.4960578947368424,3.2965610526315787,2.1118926315789475,2.019284210526316,1.9726810526315788,2.165007368421053,-1068.3594
52.0,1.0,444.0,3.5633052631578948,4.142805263157895,3.569338947368421,0.9421494736842105,3.881017894736842,2.4634705263157897,2.3994221052631577,2.1289157894736843,2.6595526315789475,-1067.3828
52.0,1.0,445.0,3.6464526315789474,4.231462105263158,3.658741052631579,1.0531336842105263,4.082684210526316,2.393421052631579,2.606808421052632,2.031741052631579,2.7486378947368424,-1066.4063
52.0,1.0,446.0,3.4550105263157893,4.116545263157895,3.661529473684211,0.9060663157894737,3.888741052631579,2.1750231578947368,2.439592631578947,1.9927189473684215,2.618894736842105,-1065.4297
52.0,1.0,447.0,3.379238947368421,4.106372631578947,3.6353778947368425,0.8512673684210526,3.579510526315789,1.96328,2.131698947368421,1.9430705263157895,2.394370526315789,-1064.4531
52.0,1.0,448.0,3.2724842105263154,4.036984210526316,3.5271757894736844,1.0739926315789474,3.4100726315789474,1.863781052631579,2.081524210526316,1.9643642105263157,2.249176842105263,-1063.4766
52.0,1.0,449.0,3.2360389473684212,3.9807652631578945,3.5096757894736843,1.504741052631579,3.2723473684210527,1.9656294736842106,1.9532736842105265,2.0599157894736844,2.1331105263157895,-1062.5
52.0,1.0,450.0,3.3552378947368418,4.12982,3.5685473684210525,1.4301873684210524,3.189502105263158,1.9873010526315789,1.85666,2.006001052631579,1.963383157894737,-1061.5234
52.0,1.0,451.0,3.2819273684210524,4.129616842105263,3.5768705263157896,1.1517642105263157,3.1428915789473684,1.9604252631578947,1.7789778947368422,1.89116,1.7633684210526317,-1060.5469
52.0,1.0,452.0,3.3035347368421055,4.179116842105263,3.6242684210526317,1.1749726315789473,3.3501305263157897,2.0595705263157895,1.9100694736842105,1.928936842105263,1.7407705263157895,-1059.5703
52.0,1.0,453.0,3.6781284210526315,4.592576842105263,3.9740505263157897,1.4725315789473687,3.852992631578948,2.3560600000000003,2.431837894736842,2.2441,2.0305715789473684,-1058.5938
52.0,1.0,454.0,4.098735789473684,4.922722105263158,4.2519831578947365,1.5818684210526317,4.216794736842106,2.584867368421053,2.7575442105263157,2.507926315789474,2.3220915789473686,-1057.6172
52.0,1.0,455.0,4.365911578947368,5.161557894736842,4.487256842105263,1.6530231578947367,4.504463157894737,2.8440947368421057,2.9134673684210526,2.7790368421052634,2.4106694736842105,-1056.6406
52.0,1.0,456.0,4.469007368421052,5.294072631578948,4.592983157894737,1.8118094736842103,4.69177052631579,2.851955789473684,2.9536684210526314,2.6804884210526314,2.4000378947368417,-1055.6641
52.0,1.0,457.0,4.592238947368421,5.371825263157895,4.561152631578947,1.6623873684210528,4.799696842105264,2.871624210526316,2.916777894736842,2.5095452631578947,2.3805242105263154,-1054.6875
52.0,1.0,458.0,4.724827368421052,5.450481052631579,4.567334736842105,1.4220684210526315,4.728507368421052,2.9294463157894737,2.887955789473684,2.4351305263157896,2.39906,-1053.7109
52.0,1.0,459.0,4.776675789473684,5.484715789473684,4.579058947368421,1.6444663157894737,4.718943157894737,2.9345694736842107,2.900381052631579,2.4689705263157893,2.406123157894737,-1052.7344
52.0,1.0,460.0,4.7410968421052635,5.466643157894737,4.519663157894737,1.9919505263157895,4.628652631578947,2.949958947368421,2.769538947368421,2.4851684210526317,2.2651452631578946,-1051.7578
52.0,1.0,461.0,4.521152631578947,5.21472,4.1954,1.7613778947368426,4.3443463157894735,2.705065263157895,2.4438947368421053,2.2928,1.97724,-1050.7813
52.0,1.0,462.0,4.512484210526315,5.061388421052632,3.9735315789473686,1.5521073684210527,4.134694736842105,2.5357652631578946,2.1345536842105264,2.1200684210526317,1.7642073684210529,-1049.8047
52.0,1.0,463.0,4.479615789473684,4.888951578947369,3.878764210526316,1.4419610526315791,4.115008421052632,2.354477894736842,2.125757894736842,1.886521052631579,1.7117915789473686,-1048.8281
52.0,1.0,464.0,4.237835789473684,4.791754736842106,3.868227368421053,1.529235789473684,4.0531536842105265,2.3666894736842106,2.311635789473684,1.9589589473684208,1.9672021052631579,-1047.8516
52.0,1.0,465.0,3.9227452631578945,4.644616842105263,3.711630526315789,1.6533642105263158,3.799163157894737,2.3964126315789476,2.2495873684210523,1.9323473684210524,2.0224884210526315,-1046.875
52.0,1.0,466.0,3.8555526315789477,4.53628947368421,3.5630526315789472,1.7386589473684209,3.7420884210526317,2.1798547368421053,2.1654863157894737,1.632657894736842,1.9047284210526314,-1045.8984
52.0,1.0,467.0,3.737283157894737,4.3252263157894735,3.2925010526315788,1.4707126315789474,3.7336400000000003,1.8578652631578947,2.176918947368421,1.3115957894736843,1.7793421052631582,-1044.9219
52.0,1.0,468.0,3.74356,4.245283157894737,3.1026105263157895,1.3128505263157895,3.930587368421053,1.6566631578947366,2.216558947368421,1.1823326315789473,1.7613252631578946,-1043.9453
52.0,1.0,469.0,3.674827368421053,4.214735789473684,3.0403,1.170623157894737,3.7923536842105263,1.6807736842105263,2.2520599999999997,1.232363157894737,1.7195799999999999,-1042.9688
52.0,1.0,470.0,3.275654736842105,3.876896842105263,2.7058115789473685,1.006077894736842,3.3730157894736843,1.5019336842105262,1.940023157894737,1.0823947368421052,1.3849273684210528,-1041.9922
52.0,1.0,471.0,3.181478947368421,3.774604210526316,2.6509705263157897,1.0802305263157894,3.324169473684211,1.3928494736842107,1.9116926315789475,1.0570242105263157,1.3081589473684212,-1041.0156
52.0,1.0,472.0,3.079123157894737,3.660738947368421,2.588833684210526,0.9387842105263158,3.1196157894736842,1.2855747368421053,1.6814957894736842,1.0602315789473684,1.1969094736842105,-1040.0391
52.0,1.0,473.0,2.8809084210526317,3.4181736842105264,2.3592663157894735,0.6794294736842107,2.7772315789473683,1.0900526315789474,1.2711652631578947,1.0157705263157897,0.9404873684210526,-1039.0625
52.0,1.0,474.0,2.8291684210526316,3.3498115789473686,2.30668,0.5621905263157894,2.89896,1.1803231578947369,1.3231600000000001,1.068541052631579,0.9657631578947368,-1038.0859
52.0,1.0,475.0,2.972023157894737,3.5979410526315787,2.6214547368421055,0.9711757894736841,3.3756873684210524,1.4729473684210528,1.7565873684210522,1.4065147368421052,1.2679705263157894,-1037.1094
52.0,1.0,476.0,3.238513684210526,3.96654,2.969401052631579,1.356847368421053,3.5831673684210523,1.866237894736842,2.0697663157894737,1.8189989473684212,1.504021052631579,-1036.1328
52.0,1.0,477.0,3.4027873684210523,4.146331578947368,3.163224210526316,1.280741052631579,3.4788663157894737,2.0556673684210525,2.0850515789473687,1.9593652631578948,1.5679084210526315,-1035.1563
52.0,1.0,478.0,3.2392178947368424,3.996503157894737,3.052837894736842,1.165724210526316,3.2953621052631576,1.8612957894736841,1.9110252631578946,1.8607073684210527,1.4544073684210526,-1034.1797
52.0,1.0,479.0,3.0517326315789473,3.7843042105263156,2.8639042105263157,0.9613726315789475,3.14948,1.6453568421052631,1.7626726315789474,1.6025094736842107,1.2760989473684212,-1033.2031
52.0,1.0,480.0,2.844154736842105,3.6265578947368424,2.7339673684210526,0.5741842105263157,2.9694126315789475,1.4709599999999998,1.545365263157895,1.43058,1.1541063157894738,-1032.2266
52.0,1.0,481.0,2.651485263157895,3.473972631578947,2.6200400000000004,0.2800884210526315,2.926088421052632,1.3716284210526315,1.6482947368421055,1.3422557894736842,1.211277894736842,-1031.25
52.0,1.0,482.0,2.590661052631579,3.317405263157895,2.429583157894737,0.14554631578947363,2.9047747368421053,1.1736547368421053,1.7060126315789474,1.1747578947368422,1.204882105263158,-1030.2734
52.0,1.0,483.0,2.5709905263157897,3.2543663157894738,2.3232652631578947,0.042222105263157735,3.0316684210526312,0.9896084210526316,1.7403484210526317,0.8541621052631582,1.1841336842105263,-1029.2969
52.0,1.0,484.0,2.521455789473684,3.2217726315789474,2.20142,-0.1404526315789474,3.257616842105263,0.8004947368421053,1.896623157894737,0.6650726315789475,1.1844778947368422,-1028.3203
52.0,1.0,485.0,2.538578947368421,3.2258484210526315,2.1747136842105266,-0.09716736842105284,3.196943157894737,0.6859463157894737,1.849821052631579,0.5751515789473686,1.06032,-1027.3438
52.0,1.0,486.0,2.4729294736842102,3.1179831578947366,2.090462105263158,0.12420842105263148,3.0044094736842104,0.6935726315789474,1.5956273684210527,0.600141052631579,0.7665663157894738,-1026.3672
52.0,1.0,487.0,2.481024210526316,3.0113147368421056,2.0144947368421056,0.3202789473684211,2.768084210526316,0.6931178947368423,1.2702168421052633,0.6085400000000001,0.6206694736842105,-1025.3906
52.0,1.0,488.0,2.4428326315789475,2.893418947368421,1.980406315789474,0.24235368421052633,2.6046063157894737,0.6481557894736839,1.1459147368421052,0.7375315789473683,0.6424221052631579,-1024.4141
52.0,1.0,489.0,2.5697052631578945,3.027401052631579,2.1270726315789474,0.4633957894736844,2.679626315789474,0.8322736842105262,1.3247494736842105,1.0403842105263157,0.8039094736842106,-1023.4375
52.0,1.0,490.0,2.604978947368421,3.082725263157895,2.122998947368421,0.6130252631578949,2.615138947368421,0.9286273684210526,1.3427526315789475,1.1540957894736843,0.8360210526315791,-1022.4609
52.0,1.0,491.0,2.7103621052631577,3.1100557894736838,2.102317894736842,0.5864957894736842,2.5211336842105263,0.8442578947368421,1.4441252631578945,1.0431389473684212,0.8109263157894738,-1021.4844
52.0,1.0,492.0,2.7794063157894735,3.1320642105263152,2.079362105263158,0.4929052631578948,2.2826284210526318,0.8728484210526314,1.4341989473684214,0.8758968421052632,0.8333968421052631,-1020.5078
52.0,1.0,493.0,2.9934473684210525,3.3738726315789473,2.2728284210526315,0.6998936842105262,2.305333684210526,1.1081926315789474,1.499537894736842,1.0457863157894736,1.020742105263158,-1019.5313
52.0,1.0,494.0,3.395461052631579,3.757941052631579,2.608452631578947,1.0328094736842106,2.842341052631579,1.4009189473684212,1.8700010526315791,1.4112094736842105,1.286981052631579,-1018.5547
52.0,1.0,495.0,3.6562547368421052,3.9651042105263157,2.745331578947369,1.0275052631578947,3.3073515789473684,1.5624852631578945,2.0380305263157896,1.5661168421052634,1.4254642105263156,-1017.5781
52.0,1.0,496.0,3.671636842105263,4.016,2.7968736842105266,0.9579757894736842,3.3820063157894733,1.5412042105263157,2.001423157894737,1.4263736842105261,1.5674789473684212,-1016.6016
52.0,1.0,497.0,3.548667368421053,3.91056,2.730711578947368,0.8097957894736842,3.2477473684210527,1.5567768421052635,1.8398021052631577,1.4078315789473683,1.5915715789473683,-1015.625
52.0,1.0,498.0,3.613714736842105,3.961064210526316,2.758661052631579,0.7906557894736843,3.152723157894737,1.6701705263157895,1.736314736842105,1.518038947368421,1.5522399999999998,-1014.6484
52.0,1.0,499.0,3.781514736842105,4.113056842105263,2.8610368421052637,0.9872242105263159,3.323594736842105,1.7983421052631576,1.9913515789473686,1.5704442105263157,1.7155947368421054,-1013.6719
52.0,1.0,500.0,3.97766,4.232735789473684,2.9911726315789475,1.226218947368421,3.5012294736842104,1.9255557894736843,2.042848421052631,1.6834736842105265,1.71548,-1012.6953
52.0,1.0,501.0,4.157756842105263,4.375097894736842,3.1341294736842107,1.6017778947368424,3.67044,2.06312,2.0938052631578947,1.9349515789473686,1.765801052631579,-1011.7188
52.0,1.0,502.0,4.365710526315789,4.569610526315789,3.2903073684210526,1.7913252631578946,4.020292631578947,2.1753926315789474,2.3761115789473686,2.1796326315789476,2.0075368421052633,-1010.7422
52.0,1.0,503.0,4.264101052631579,4.663967368421053,3.507704210526316,1.6161221052631578,4.180161052631579,2.258218947368421,2.6293231578947367,2.392181052631579,2.2968052631578946,-1009.7656
52.0,1.0,504.0,4.21887052631579,4.708583157894737,3.628737894736842,1.3934505263157895,4.162101052631579,2.338768421052632,2.7766221052631583,2.495316842105263,2.5669873684210525,-1008.7891
52.0,1.0,505.0,4.280355789473684,4.792501052631579,3.6894757894736845,1.3894484210526317,3.996682105263158,2.3482115789473688,2.701186315789474,2.554694736842105,2.628741052631579,-1007.8125
52.0,1.0,506.0,4.3299,4.841429473684211,3.678371578947368,1.465234736842105,3.8392,2.4241305263157895,2.5794200000000003,2.523529473684211,2.466073684210526,-1006.8359
52.0,1.0,507.0,4.073825263157895,4.6061031578947365,3.5198063157894737,1.2693357894736843,3.5735147368421054,2.1922894736842102,2.370002105263158,2.384233684210526,2.3804389473684213,-1005.8594
52.0,1.0,508.0,3.832075789473684,4.466877894736842,3.542057894736842,1.367401052631579,3.2810284210526315,2.1271505263157895,2.1311252631578945,2.4076473684210526,2.366244210526316,-1004.8828
52.0,1.0,509.0,4.070445263157895,4.734935789473684,3.902982105263158,1.889363157894737,3.3293799999999996,2.4655757894736845,2.202594736842105,2.76808,2.528807368421053,-1003.9063
52.0,1.0,510.0,4.192241052631579,4.803313684210527,4.031329473684211,2.0209873684210526,3.5087705263157893,2.7435652631578944,2.3405273684210526,2.940801052631579,2.5441263157894736,-1002.9297
52.0,1.0,511.0,4.132981052631579,4.7763484210526315,4.019963157894737,2.2364368421052627,3.8489357894736846,2.859708421052632,2.64196,3.0724031578947373,2.6866884210526316,-1001.9531
52.0,1.0,512.0,4.133824210526316,4.7808242105263155,4.085924210526316,2.4376936842105263,4.0767031578947375,2.9472315789473686,2.8611610526315787,3.237783157894737,2.8592631578947367,-1000.9766
52.0,1.0,513.0,3.8620926315789474,4.639274736842106,4.006308421052632,2.251245263157895,4.05532,2.8412778947368422,2.948083157894737,3.196657894736842,2.991215789473684,-1000.0
52.0,1.0,514.0,3.8310863157894737,4.653165263157895,4.11422947368421,2.1145284210526314,4.073873684210526,2.749966315789474,3.063195789473684,3.2678852631578947,3.178303157894737,-999.0234
52.0,1.0,515.0,3.8630284210526318,4.709576842105263,4.305268421052632,2.076921052631579,4.073628421052632,2.9172926315789476,3.092584210526316,3.4504294736842103,3.2652684210526313,-998.0469
52.0,1.0,516.0,3.9775147368421053,4.86722947368421,4.454841052631579,2.1985621052631577,4.165508421052632,3.075214736842105,3.2425126315789474,3.6965421052631577,3.390384210526316,-997.0703
52.0,1.0,517.0,4.062903157894737,5.024412631578947,4.691457894736842,2.3510126315789477,4.37192,3.2915894736842106,3.4647821052631578,3.9686052631578947,3.5281115789473683,-996.0938
52.0,1.0,518.0,4.247590526315789,5.235848421052632,4.9181957894736845,2.413522105263158,4.630115789473684,3.5105736842105264,3.5843368421052633,4.021961052631579,3.6371473684210525,-995.1172
52.0,1.0,519.0,4.411686315789474,5.270907368421053,4.9138168421052635,2.4152842105263157,4.74173052631579,3.5821863157894738,3.558158947368421,4.0712673684210525,3.596515789473684,-994.1406
52.0,1.0,520.0,4.4675242105263155,5.228696842105263,4.85290947368421,2.4967136842105266,4.848910526315789,3.6620663157894735,3.558743157894737,4.389086315789474,3.6146315789473684,-993.1641
52.0,1.0,521.0,4.733332631578947,5.559770526315789,5.098984210526316,2.91613052631579,5.096566315789474,3.8710178947368417,3.8394842105263156,4.6811063157894734,3.7955347368421046,-992.1875
52.0,1.0,522.0,4.917167368421053,5.738547368421053,5.26568,3.181491578947369,5.332288421052632,3.9378715789473686,4.100708421052632,4.79920947368421,3.8733442105263154,-991.2109
52.0,1.0,523.0,4.838833684210527,5.696691578947369,5.2543,2.9699452631578946,5.409194736842106,3.9666915789473682,4.226605263157895,4.790068421052632,3.9230084210526317,-990.2344
52.0,1.0,524.0,4.726917894736842,5.58702947368421,5.2247821052631584,2.773751578947368,5.289297894736842,4.051218947368421,4.273727368421053,4.758144210526316,4.0307936842105265,-989.2578
52.0,1.0,525.0,4.876655789473684,5.629690526315789,5.305028421052632,2.9364915789473685,5.1403452631578945,4.000828421052631,4.177017894736842,4.689442105263158,4.112991578947369,-988.2813
52.0,1.0,526.0,4.848486315789474,5.527867368421052,5.151077894736843,3.0939463157894735,4.930717894736842,3.7121673684210528,3.8091094736842104,4.472187368421053,3.8092421052631575,-987.3047
52.0,1.0,527.0,4.610503157894737,5.3264778947368425,4.873976842105264,2.9974284210526316,4.716418947368421,3.4958473684210527,3.4802168421052633,4.193603157894737,3.4478842105263157,-986.3281
52.0,1.0,528.0,4.564224210526316,5.287216842105263,4.852195789473684,2.901633684210526,4.619423157894737,3.5516894736842106,3.4245663157894737,4.044931578947368,3.410755789473684,-985.3516
52.0,1.0,529.0,4.65696947368421,5.4164431578947365,4.946461052631578,3.0730778947368425,4.490667368421053,3.790555789473684,3.412254736842105,4.102426315789474,3.4235336842105264,-984.375
52.0,1.0,530.0,4.500432631578947,5.254492631578947,4.691908421052632,3.1982399999999997,4.119903157894737,3.705765263157895,3.164824210526316,3.9781284210526318,3.1901905263157895,-983.3984
52.0,1.0,531.0,4.294285263157895,4.996754736842106,4.333263157894737,3.041627368421053,3.91046,3.5513136842105264,2.985578947368421,3.7193705263157892,2.9647421052631575,-982.4219
52.0,1.0,532.0,4.176504210526316,4.885205263157895,4.1915821052631586,2.834326315789474,3.74495052631579,3.501537894736842,2.7475284210526314,3.6653989473684208,2.8014294736842107,-981.4453
52.0,1.0,533.0,4.284016842105263,4.979632631578947,4.2355599999999995,2.6612884210526317,3.8328210526315787,3.5569147368421055,2.8537768421052627,3.6550894736842103,2.9509894736842104,-980.4688
52.0,1.0,534.0,4.143175789473684,4.850318947368421,4.184396842105263,2.359838947368421,3.861045263157895,3.325858947368421,2.9598473684210527,3.2882694736842106,3.1397210526315793,-979.4922
52.0,1.0,535.0,3.9010768421052635,4.600590526315789,4.040651578947369,2.2174621052631576,3.7830863157894736,3.0424052631578946,2.9304073684210525,2.969905263157895,3.168827368421052,-978.5156
52.0,1.0,536.0,3.804894736842105,4.455565263157895,3.837477894736842,2.113614736842105,3.748515789473684,2.951862105263158,3.071782105263158,2.898014736842105,3.1958494736842105,-977.5391
52.0,1.0,537.0,3.870014736842105,4.486041052631579,3.816003157894737,2.4177684210526316,3.848775789473684,3.032446315789474,3.1282105263157893,3.0040400000000003,3.206042105263158,-976.5625
52.0,1.0,538.0,4.057817894736842,4.629044210526316,3.8097726315789475,2.6429252631578946,4.0989157894736845,3.054263157894737,3.155631578947369,2.9845526315789477,3.185823157894737,-975.5859
52.0,1.0,539.0,3.9717252631578948,4.428656842105263,3.613101052631579,2.336215789473684,3.9900399999999996,2.790116842105263,3.0113852631578943,2.7590568421052635,2.977790526315789,-974.6094
52.0,1.0,540.0,3.8152242105263157,4.160894736842105,3.376177894736842,2.113684210526316,3.7250926315789474,2.684445263157895,2.7349031578947365,2.749456842105263,2.765162105263158,-973.6328
52.0,1.0,541.0,3.702874736842105,4.029510526315789,3.2102905263157893,2.2590778947368424,3.5112505263157896,2.684962105263158,2.4844031578947368,2.6960715789473686,2.557796842105263,-972.6563
52.0,1.0,542.0,3.3557094736842106,3.7509747368421054,3.0570789473684212,1.918462105263158,3.176418947368421,2.508945263157895,2.2609831578947372,2.642097894736842,2.4156926315789473,-971.6797
52.0,1.0,543.0,3.044264210526316,3.5213905263157894,3.003742105263158,1.534462105263158,2.9769515789473684,2.429638947368421,2.218198947368421,2.616826315789474,2.4610684210526315,-970.7031
52.0,1.0,544.0,2.7477126315789473,3.2589778947368417,2.836744210526316,1.2703284210526316,2.8857694736842103,2.298973684210526,2.2266610526315787,2.5595526315789474,2.516483157894737,-969.7266
52.0,1.0,545.0,2.6600873684210526,3.2072747368421055,2.794031578947368,1.3096505263157894,2.865104210526316,2.148792631578947,2.1150789473684206,2.4689305263157895,2.343443157894737,-968.75
52.0,1.0,546.0,2.8190094736842104,3.313081052631579,2.80778,1.568317894736842,2.8878515789473687,2.316338947368421,2.084956842105263,2.519632631578947,2.2588915789473685,-967.7734
52.0,1.0,547.0,2.9325726315789473,3.386374736842105,2.8072052631578948,1.706042105263158,3.0462157894736843,2.554398947368421,2.174803157894737,2.8008115789473687,2.3895768421052628,-966.7969
52.0,1.0,548.0,2.7820505263157895,3.302738947368421,2.751921052631579,1.634302105263158,3.095941052631579,2.426995789473684,2.1712757894736843,2.816995789473684,2.309553684210526,-965.8203
52.0,1.0,549.0,2.611557894736842,3.1515105263157897,2.655936842105263,1.4977021052631583,2.882145263157895,2.2955105263157893,2.1259336842105263,2.6424336842105265,2.262555789473684,-964.8438
52.0,1.0,550.0,2.825043157894737,3.28352947368421,2.7487347368421053,1.5472305263157893,3.020221052631579,2.258304210526316,2.2148947368421052,2.472776842105263,2.318566315789474,-963.8672
52.0,1.0,551.0,3.0335410526315787,3.448763157894737,2.8693284210526318,1.7614305263157892,3.1933210526315787,2.4252915789473684,2.2641305263157894,2.7327431578947365,2.3153715789473686,-962.8906
52.0,1.0,552.0,2.9801136842105262,3.428361052631579,2.817761052631579,1.7313821052631577,3.1248968421052634,2.470818947368421,2.1755568421052636,2.7040631578947365,2.229023157894737,-961.9141
52.0,1.0,553.0,2.894315789473684,3.3670799999999996,2.7791305263157895,1.7174178947368417,3.158757894736842,2.3236515789473686,2.305202105263158,2.5057694736842104,2.285823157894737,-960.9375
52.0,1.0,554.0,3.087477894736842,3.6022968421052632,2.979957894736842,1.9172442105263159,3.576833684210526,2.3249126315789477,2.6826684210526315,2.5950052631578946,2.414063157894737,-959.9609
52.0,1.0,555.0,3.5345978947368426,3.971702105263158,3.382796842105263,2.190821052631579,4.195341052631579,2.572195789473684,3.1672421052631576,2.753682105263158,2.7171231578947372,-958.9844
52.0,1.0,556.0,3.867558947368421,4.179569473684211,3.496023157894737,2.2728852631578946,4.469698947368421,2.6753884210526317,3.384827368421053,2.739183157894737,2.850843157894737,-958.0078
52.0,1.0,557.0,3.9977305263157894,4.248054736842105,3.431978947368421,2.4454178947368423,4.3969736842105265,2.721201052631579,3.236988421052631,2.614995789473684,2.587583157894737,-957.0313
52.0,1.0,558.0,3.9300294736842107,4.21285052631579,3.354413684210526,2.3351105263157894,4.283214736842105,2.6585315789473682,3.059315789473684,2.4983263157894733,2.363853684210526,-956.0547
52.0,1.0,559.0,3.7827768421052634,4.118932631578947,3.329924210526316,2.307830526315789,4.052035789473684,2.72753052631579,2.861437894736842,2.4458694736842106,2.222334736842105,-955.0781
52.0,1.0,560.0,3.8635494736842104,4.230888421052631,3.4281252631578947,2.4142347368421055,3.9587231578947373,2.7991,2.7091378947368425,2.4667484210526314,2.184958947368421,-954.1016
52.0,1.0,561.0,3.7620557894736844,4.209312631578947,3.4664694736842105,2.2164368421052627,3.9832842105263158,2.655458947368421,2.7209526315789474,2.3747873684210528,2.2590863157894736,-953.125
52.0,1.0,562.0,3.505435789473684,4.026392631578947,3.2891147368421056,1.8419789473684207,3.8327599999999995,2.4641305263157895,2.6070105263157894,2.1028568421052634,2.1630126315789475,-952.1484
52.0,1.0,563.0,3.3179694736842102,3.926121052631579,3.1701863157894734,1.7702442105263159,3.407207368421053,2.3972242105263155,2.33086,2.03266,1.9619536842105265,-951.1719
52.0,1.0,564.0,3.3027663157894733,3.8413115789473684,3.112896842105263,1.7891778947368422,3.237096842105263,2.402924210526316,2.234978947368421,1.926464210526316,1.8451199999999999,-950.1953
52.0,1.0,565.0,3.1058136842105264,3.595817894736842,2.8489926315789473,1.698182105263158,3.1112957894736843,2.121485263157895,2.055184210526316,1.6265810526315791,1.5577115789473683,-949.2188
52.0,1.0,566.0,2.95806947368421,3.539450526315789,2.7326515789473684,1.3844557894736842,3.1297684210526313,1.8581115789473683,1.936798947368421,1.4318978947368421,1.3280652631578946,-948.2422
52.0,1.0,567.0,2.8770368421052637,3.4964905263157897,2.713821052631579,1.2295147368421053,3.079753684210526,1.758124210526316,1.6736484210526317,1.2142073684210524,1.118745263157895,-947.2656
52.0,1.0,568.0,2.7544768421052632,3.3325978947368418,2.546146315789474,1.077355789473684,2.890844210526316,1.5366905263157895,1.451343157894737,0.9027378947368421,0.8535105263157895,-946.2891
52.0,1.0,569.0,2.821782105263158,3.3145063157894734,2.378321052631579,0.888778947368421,2.9985515789473682,1.2227505263157894,1.6367389473684208,0.5402757894736844,0.8968821052631579,-945.3125
52.0,1.0,570.0,3.060716842105263,3.389301052631579,2.2842957894736844,0.7288705263157893,3.1414147368421053,1.0217326315789474,1.5897063157894735,0.27324000000000015,0.8151326315789474,-944.3359
52.0,1.0,571.0,3.1869326315789475,3.4422410526315788,2.2772378947368423,0.5823757894736842,3.1883852631578944,1.025862105263158,1.490938947368421,0.2546905263157895,0.5770978947368421,-943.3594
52.0,1.0,572.0,3.451188421052631,3.6424831578947363,2.417372631578947,0.9629178947368421,3.4473115789473683,1.2024694736842105,1.6567652631578949,0.44664315789473685,0.532105263157895,-942.3828
52.0,1.0,573.0,3.7246621052631577,3.9067652631578946,2.540598947368421,1.6909673684210527,3.78049052631579,1.4841094736842102,1.8276757894736841,0.6573494736842105,0.5704294736842104,-941.4063
52.0,1.0,574.0,3.8194231578947364,4.021544210526316,2.596342105263158,1.9166515789473686,3.94675052631579,1.5221978947368422,1.8701147368421052,0.6859136842105266,0.5488094736842106,-940.4297
52.0,1.0,575.0,3.3949736842105263,3.676963157894737,2.2651705263157895,1.5794631578947367,3.5634936842105263,1.1165800000000001,1.6362052631578945,0.1875168421052632,0.28163894736842093,-939.4531
52.0,1.0,576.0,2.8990273684210526,3.225538947368421,1.8130978947368421,1.1046063157894737,2.953094736842105,0.5827821052631578,1.1231968421052632,-0.2996010526315789,-0.1015010526315789,-938.4766
52.0,1.0,577.0,2.3764242105263156,2.658384210526316,1.2592778947368422,0.640158947368421,2.3389284210526315,0.09155157894736846,0.47633578947368427,-0.7136115789473684,-0.5950515789473684,-937.5
52.0,1.0,578.0,2.0392957894736843,2.2754242105263156,0.9045021052631579,0.3084052631578947,1.8312578947368423,-0.26114631578947367,-0.02466631578947364,-1.0823031578947369,-0.9979168421052631,-936.5234
52.0,1.0,579.0,1.9164105263157893,2.1593905263157898,0.7857842105263159,0.16899368421052632,1.5395873684210526,-0.4354757894736842,-0.20377052631578943,-1.2176957894736842,-1.2465894736842105,-935.5469
52.0,1.0,580.0,2.0159494736842105,2.171698947368421,0.7693536842105264,0.23491157894736836,1.6857905263157895,-0.2949915789473685,-0.07785157894736827,-1.101163157894737,-1.1623578947368423,-934.5703
52.0,1.0,581.0,2.221644210526316,2.240626315789474,0.8047768421052631,0.35027473684210525,1.9742705263157896,-0.027341052631578988,0.012696842105263149,-0.8751873684210526,-0.9526463157894736,-933.5938
52.0,1.0,582.0,2.3363326315789474,2.3569042105263156,0.900778947368421,0.6303315789473681,2.1857273684210528,0.18760210526315768,0.14388947368421057,-0.7596126315789475,-0.8171873684210527,-932.6172
52.0,1.0,583.0,2.4128936842105264,2.476474736842105,1.1028726315789472,1.0617147368421054,2.3750884210526317,0.2942536842105263,0.39066421052631567,-0.6080136842105265,-0.6549484210526316,-931.6406
52.0,1.0,584.0,2.6373147368421055,2.7576905263157894,1.4397642105263158,1.4526505263157896,2.73978,0.5779210526315791,0.7354242105263158,-0.2955505263157895,-0.34250736842105267,-930.6641
52.0,1.0,585.0,2.578385263157895,2.796662105263158,1.5420831578947367,1.5335484210526313,2.8570084210526314,0.7477905263157895,0.8411726315789474,-0.14736421052631582,-0.23417894736842093,-929.6875
52.0,1.0,586.0,2.6570315789473686,2.8440442105263157,1.5873505263157897,1.4792915789473684,2.836274736842105,0.9222157894736842,0.8614210526315789,-0.016025263157894713,-0.1693473684210526,-928.7109
52.0,1.0,587.0,3.0147115789473684,3.1186252631578943,1.9370368421052633,1.5543368421052632,3.0886000000000005,1.2093663157894736,1.1816326315789474,0.3772621052631579,0.25382526315789483,-927.7344
52.0,1.0,588.0,3.2171589473684215,3.4539389473684206,2.288858947368421,1.7736926315789474,3.335135789473684,1.4745673684210527,1.5010568421052632,0.7312684210526315,0.6265389473684211,-926.7578
52.0,1.0,589.0,3.337543157894737,3.6127905263157896,2.443526315789474,2.0255147368421054,3.4815115789473685,1.5100147368421053,1.6600431578947366,0.9132084210526316,0.7267368421052632,-925.7813
52.0,1.0,590.0,3.3154884210526316,3.579281052631579,2.405922105263158,2.146315789473684,3.3661768421052627,1.5563115789473685,1.6664936842105265,0.878983157894737,0.7860863157894737,-924.8047
52.0,1.0,591.0,3.1375052631578946,3.49535052631579,2.348638947368421,2.251734736842105,3.2398305263157896,1.587156842105263,1.6286852631578947,0.757577894736842,0.7739336842105262,-923.8281
52.0,1.0,592.0,2.937274736842105,3.342296842105263,2.2978273684210526,2.0873694736842103,2.9894389473684213,1.4306726315789475,1.4036652631578947,0.6404263157894736,0.5641968421052632,-922.8516
52.0,1.0,593.0,2.74592,3.188147368421052,2.300294736842105,1.8673789473684212,2.829125263157895,1.5248642105263157,1.3364915789473684,0.6687378947368422,0.5832031578947368,-921.875
52.0,1.0,594.0,2.4654873684210528,2.987021052631579,2.245963157894737,1.7068073684210527,2.5950294736842108,1.605567368421053,1.0993705263157896,0.7306168421052632,0.5772347368421054,-920.8984
52.0,1.0,595.0,2.459482105263158,3.0430494736842104,2.342258947368421,1.7585147368421052,2.5683252631578948,1.6750094736842105,1.0929915789473683,0.8191368421052632,0.6010663157894739,-919.9219
52.0,1.0,596.0,2.5855021052631577,3.205882105263158,2.5368884210526312,1.7926600000000001,2.7046673684210525,1.7275589473684207,1.3135873684210526,0.7714642105263159,0.7859273684210525,-918.9453
52.0,1.0,597.0,2.639531578947368,3.183296842105263,2.4911189473684208,1.599201052631579,2.665436842105263,1.7105178947368425,1.1822199999999998,0.6385926315789472,0.6649421052631579,-917.9688
52.0,1.0,598.0,2.823992631578948,3.296462105263158,2.547657894736842,1.4762347368421052,2.78163052631579,1.7249052631578945,1.2568463157894736,0.7591189473684209,0.6851252631578946,-916.9922
52.0,1.0,599.0,2.8987147368421056,3.3879757894736846,2.7184915789473685,1.4019915789473685,2.771645263157895,1.7506547368421055,1.2664115789473684,0.8570526315789475,0.7357705263157893,-916.0156
52.0,1.0,600.0,2.8442042105263154,3.40618947368421,2.7410600000000005,1.2036757894736843,2.7277,1.6910347368421053,1.2574663157894737,0.8028599999999998,0.7549431578947369,-915.0391
52.0,1.0,601.0,2.9039157894736842,3.462714736842105,2.6964126315789474,1.4092663157894734,2.854372631578948,1.746954736842105,1.3637431578947368,0.9926957894736842,0.8404305263157895,-914.0625
52.0,1.0,602.0,3.1450336842105266,3.6227842105263157,2.749981052631579,1.7130978947368423,3.0631578947368423,1.8928694736842104,1.505921052631579,1.165864210526316,0.8675484210526316,-913.0859
52.0,1.0,603.0,3.265396842105263,3.7689168421052632,2.9137084210526316,2.038484210526316,3.068747368421053,2.059472631578947,1.586484210526316,1.2969126315789474,0.9049947368421053,-912.1094
52.0,1.0,604.0,3.0411305263157895,3.7084705263157898,2.869006315789474,1.9219368421052632,2.798578947368421,1.9588273684210524,1.487981052631579,1.3534557894736843,0.8638631578947369,-911.1328
52.0,1.0,605.0,3.046621052631579,3.824161052631579,2.98192,1.9711694736842105,2.870452631578947,2.1035210526315793,1.6494105263157897,1.4764915789473685,0.9667915789473684,-910.1563
52.0,1.0,606.0,3.1293547368421053,3.877341052631579,3.071141052631579,1.876118947368421,2.9613978947368422,2.106126315789474,1.819698947368421,1.5559789473684211,1.0865736842105265,-909.1797
52.0,1.0,607.0,3.043827368421052,3.7337126315789475,2.917861052631579,1.6912515789473686,2.9009747368421053,1.825736842105263,1.7021505263157894,1.3850642105263158,0.9936705263157893,-908.2031
52.0,1.0,608.0,2.8807294736842106,3.554447368421053,2.734537894736842,1.6181126315789476,2.8802094736842108,1.7695894736842104,1.5270515789473682,1.2497305263157892,0.9165263157894737,-907.2266
52.0,1.0,609.0,2.8924610526315786,3.514904210526316,2.6175778947368418,1.9116484210526314,2.8500378947368423,1.8530642105263158,1.4888536842105264,1.3615568421052633,0.9867536842105263,-906.25
52.0,1.0,610.0,2.9767042105263157,3.581231578947368,2.611596842105263,2.171181052631579,2.8686199999999995,1.9482599999999999,1.513556842105263,1.5026463157894738,1.0334073684210525,-905.2734
52.0,1.0,611.0,2.9819789473684213,3.5738442105263157,2.7893715789473683,1.9793305263157897,2.9860210526315787,1.9941431578947368,1.6227505263157895,1.6911294736842104,1.2172463157894737,-904.2969
52.0,1.0,612.0,2.8665294736842104,3.4670421052631575,2.7414115789473685,1.7651726315789475,3.0370305263157893,1.8918926315789473,1.6898,1.6635652631578948,1.292562105263158,-903.3203
52.0,1.0,613.0,2.718050526315789,3.2918,2.526643157894737,1.553015789473684,2.8852568421052633,1.5973157894736842,1.562883157894737,1.4300273684210525,1.1602999999999999,-902.3438
52.0,1.0,614.0,2.4836684210526316,3.0800042105263157,2.3268326315789474,1.3021168421052634,2.5142747368421055,1.2590284210526315,1.4223326315789473,1.2637536842105266,1.1114747368421054,-901.3672
52.0,1.0,615.0,2.368536842105263,2.9624221052631583,2.2061621052631577,1.012118947368421,2.2020305263157898,1.1007052631578944,1.2869115789473684,1.1100873684210528,1.127318947368421,-900.3906
52.0,1.0,616.0,2.480981052631579,3.0912831578947366,2.3778694736842105,0.8615557894736844,2.336816842105263,1.2508336842105263,1.5096863157894735,1.1673568421052631,1.4077431578947368,-899.4141
52.0,1.0,617.0,2.4175231578947365,3.0707905263157893,2.4136157894736843,0.7830421052631579,2.4940536842105265,1.2137031578947368,1.6496915789473683,1.2679200000000002,1.527483157894737,-898.4375
52.0,1.0,618.0,2.371281052631579,3.005276842105263,2.3537452631578946,0.8145757894736841,2.698817894736842,1.2369894736842104,1.817867368421053,1.4577042105263158,1.6456789473684212,-897.4609
52.0,1.0,619.0,2.232863157894737,2.8188726315789476,2.2623315789473684,0.6596063157894738,2.675424210526316,1.2981484210526315,1.747337894736842,1.551637894736842,1.5841263157894736,-896.4844
52.0,1.0,620.0,2.0190210526315786,2.541245263157895,2.0017242105263158,0.52286,2.234345263157895,0.9965073684210525,1.2825652631578948,1.3691884210526317,1.2295757894736843,-895.5078
52.0,1.0,621.0,1.7889147368421052,2.329838947368421,1.7057252631578947,0.47449368421052623,1.8763315789473687,0.7246852631578947,0.9797189473684211,1.2032726315789475,1.1215294736842105,-894.5313
52.0,1.0,622.0,1.8190789473684208,2.2903094736842102,1.6783894736842107,0.4213136842105264,1.9229347368421053,0.6633715789473684,1.017944210526316,1.2502105263157897,1.2775042105263157,-893.5547
52.0,1.0,623.0,2.0063073684210524,2.403841052631579,1.8957568421052633,0.4949052631578946,2.0473368421052633,0.9587252631578946,1.2437684210526314,1.4929347368421053,1.5472494736842104,-892.5781
52.0,1.0,624.0,2.080702105263158,2.5150231578947366,1.992877894736842,0.566381052631579,1.9619000000000002,1.2443726315789474,1.280301052631579,1.679856842105263,1.6342694736842107,-891.6016
52.0,1.0,625.0,1.9357473684210529,2.4439673684210526,1.9275747368421052,0.22305894736842108,1.9290484210526317,1.3060157894736841,1.3150115789473684,1.679083157894737,1.6039642105263157,-890.625
52.0,1.0,626.0,1.9768715789473683,2.461006315789474,1.9004136842105264,-0.07618000000000007,1.8811042105263158,1.2337915789473684,1.3493305263157893,1.6998610526315792,1.6128673684210526,-889.6484
52.0,1.0,627.0,2.104881052631579,2.63726,2.1895484210526317,0.05332421052631593,2.0942200000000004,1.37446,1.5817210526315788,1.9298084210526314,1.834682105263158,-888.6719
52.0,1.0,628.0,2.306347368421053,2.924858947368421,2.523743157894737,0.2339178947368421,2.4036494736842107,1.717784210526316,1.9241252631578947,2.229312631578947,2.0838926315789474,-887.6953
52.0,1.0,629.0,2.9312452631578947,3.4775210526315785,3.000973684210526,0.815338947368421,3.060046315789474,2.148774736842105,2.4736736842105262,2.5779768421052633,2.390561052631579,-886.7188
52.0,1.0,630.0,3.2459526315789473,3.7012726315789473,3.234373684210526,1.263,3.464866315789474,2.422122105263158,2.67802,2.8133863157894736,2.4935378947368423,-885.7422
52.0,1.0,631.0,3.6234147368421055,3.9972957894736845,3.4567905263157894,1.3005305263157894,3.6566947368421054,2.644188421052631,2.761671578947369,2.882637894736842,2.5910231578947367,-884.7656
52.0,1.0,632.0,4.071948421052632,4.401517894736842,3.755717894736842,1.4050799999999999,3.9713863157894735,2.837363157894737,2.967696842105263,2.946628421052632,2.7595294736842106,-883.7891
52.0,1.0,633.0,4.063894736842105,4.411393684210527,3.7403831578947373,1.3957821052631578,3.963147368421052,3.0115410526315793,2.8324063157894734,3.0061073684210524,2.6763031578947367,-882.8125
52.0,1.0,634.0,3.6995747368421057,4.12522,3.5755263157894737,1.33498,3.641706315789474,2.889202105263158,2.582197894736842,2.821596842105263,2.4761136842105262,-881.8359
52.0,1.0,635.0,3.5032494736842104,4.001965263157895,3.5424684210526314,1.3375094736842106,3.312437894736842,2.818658947368421,2.4727705263157893,2.618354736842105,2.385995789473684,-880.8594
52.0,1.0,636.0,3.7226305263157893,4.170595789473684,3.646383157894737,1.446257894736842,3.3133294736842105,2.87238,2.471912631578947,2.5840284210526314,2.388290526315789,-879.8828
52.0,1.0,637.0,3.7145673684210525,4.077427368421052,3.4029136842105263,1.5045000000000002,3.2286621052631577,2.626743157894737,2.2571968421052633,2.312722105263158,2.184415789473684,-878.9063
